# Polarization of Light 'theta' Data File Tue, Jan 23, 2018 9:43 AM
# Sensor Position (Radians)	Light Intensity (Volts)
0.00000	3.89504
0.00000	3.89375
0.00000	3.89214
0.00000	3.89230
0.00000	3.89085
0.00000	3.89649
0.00000	3.89036
0.00000	3.88940
0.00000	3.88908
0.00000	3.89391
0.00000	3.89246
0.00000	3.89375
0.00000	3.89439
0.00000	3.88811
0.00000	3.88988
0.00000	3.89536
0.00000	3.89036
0.00000	3.89181
0.00000	3.88714
0.00000	3.88698
0.00000	3.88875
0.00000	3.89343
0.00000	3.89391
0.00000	3.89584
0.00000	3.89681
0.00000	3.89455
0.00000	3.89117
0.00000	3.88827
0.00000	3.89536
0.00000	3.89020
0.00000	3.88746
0.00000	3.88650
0.00000	3.89423
0.00000	3.89423
0.00000	3.89085
0.00000	3.88859
0.00000	3.89391
0.00000	3.89085
0.00000	3.89665
0.00000	3.89181
0.00000	3.89391
0.00000	3.88891
0.00000	3.89681
0.00000	3.89036
0.00000	3.88988
0.00000	3.88827
0.00000	3.89294
0.00000	3.89439
0.00000	3.89536
0.00000	3.89407
0.00000	3.89181
0.00000	3.89536
0.00000	3.89584
0.00000	3.89455
0.00000	3.89262
0.00000	3.89149
0.00000	3.89294
0.00000	3.89439
0.00000	3.89343
0.00000	3.89584
0.00000	3.89214
0.00000	3.89101
0.00000	3.89117
0.00000	3.88908
0.00000	3.89053
0.00000	3.89230
0.00000	3.89407
0.00000	3.89343
0.00000	3.89455
0.00000	3.89214
0.00000	3.88891
0.00000	3.88746
0.00000	3.88795
0.00000	3.88956
0.00000	3.89085
0.00000	3.89133
0.00000	3.88859
0.00000	3.89149
0.00000	3.89004
0.00000	3.88666
0.00000	3.89278
0.00000	3.89262
0.00000	3.89294
0.00000	3.89343
0.00000	3.89053
0.00000	3.89359
0.00000	3.89455
0.00000	3.88891
0.00000	3.89504
0.00000	3.89133
0.00000	3.89053
0.00000	3.89004
0.00000	3.89326
0.00000	3.89133
0.00000	3.89471
0.00000	3.89020
0.00000	3.89246
0.00000	3.89536
0.00000	3.89471
0.00000	3.89584
0.00000	3.89214
0.00000	3.89149
0.00000	3.88972
0.00000	3.88714
0.00000	3.89407
0.00000	3.89004
0.00000	3.88972
0.00000	3.89085
0.00000	3.89004
0.00000	3.89504
0.00000	3.89310
0.00000	3.89536
0.00000	3.88763
0.00000	3.89214
0.00000	3.88972
0.00000	3.89488
0.00000	3.89584
0.00000	3.89375
0.00000	3.89391
0.00000	3.89423
0.00000	3.89181
0.00000	3.89101
0.00000	3.89149
0.00000	3.89214
0.00000	3.89423
0.00000	3.89359
0.00000	3.89230
0.00000	3.89036
0.00000	3.89053
0.00000	3.89133
0.00000	3.88408
0.00000	3.89133
0.00000	3.88988
0.00000	3.89053
0.00000	3.89278
0.00000	3.89439
0.00000	3.88940
0.00000	3.89165
0.00000	3.89310
0.00000	3.89085
0.00000	3.89036
0.00000	3.89133
0.00000	3.89294
0.00000	3.89198
0.00000	3.88746
0.00000	3.88875
0.00000	3.88924
0.00000	3.88908
0.00000	3.89262
0.00000	3.88489
0.00000	3.88956
0.00000	3.88763
0.00000	3.89020
0.00000	3.88585
0.00000	3.88682
0.00000	3.88714
0.00000	3.88183
0.00000	3.88279
0.00000	3.87989
0.00000	3.88134
0.00000	3.87957
0.01745	3.87619
0.02182	3.87151
0.02182	3.87006
0.02182	3.86958
0.02182	3.87538
0.02182	3.87313
0.02182	3.87216
0.02182	3.86990
0.02182	3.87361
0.02182	3.87490
0.02182	3.87264
0.02182	3.87055
0.02182	3.87151
0.02182	3.86620
0.02182	3.86749
0.02182	3.86716
0.02182	3.87296
0.02182	3.87313
0.02182	3.87023
0.02182	3.87216
0.02182	3.86169
0.03491	3.85266
0.03927	3.85137
0.04363	3.85186
0.04363	3.85089
0.04363	3.85427
0.04363	3.85444
0.04363	3.84928
0.04363	3.85524
0.04363	3.85186
0.04363	3.85347
0.04363	3.85782
0.04363	3.84976
0.04363	3.84992
0.04363	3.84751
0.04363	3.84880
0.04363	3.84574
0.04363	3.85347
0.04363	3.85653
0.04363	3.85621
0.04363	3.85379
0.04363	3.86040
0.04363	3.85911
0.04363	3.85798
0.04363	3.85846
0.04363	3.85911
0.04363	3.86298
0.04363	3.85750
0.04363	3.85782
0.04363	3.86475
0.04363	3.86555
0.04363	3.85814
0.04363	3.85959
0.04363	3.86088
0.04363	3.86040
0.04363	3.85975
0.04363	3.85846
0.04363	3.85911
0.04363	3.86378
0.04363	3.86378
0.04363	3.86362
0.04363	3.85685
0.04363	3.85572
0.04363	3.85750
0.04363	3.86346
0.04363	3.86104
0.04363	3.86298
0.04363	3.86410
0.04363	3.85911
0.04363	3.86169
0.04363	3.86008
0.04363	3.86153
0.04363	3.86281
0.04363	3.86136
0.04363	3.86153
0.04363	3.86394
0.04363	3.86330
0.04363	3.86636
0.04363	3.86346
0.04363	3.86765
0.04363	3.86104
0.04363	3.86314
0.04363	3.86185
0.04363	3.86314
0.04363	3.85895
0.04363	3.86008
0.04363	3.85750
0.04363	3.86201
0.04363	3.85991
0.04363	3.86120
0.04363	3.86249
0.04363	3.86169
0.04363	3.86426
0.04363	3.86443
0.04363	3.86265
0.04363	3.85863
0.04363	3.86314
0.04363	3.86878
0.04363	3.86330
0.04363	3.86491
0.04363	3.86475
0.04363	3.86636
0.04363	3.86459
0.04363	3.85734
0.04363	3.85734
0.04363	3.86056
0.04363	3.86362
0.04363	3.85911
0.05672	3.85830
0.06545	3.84751
0.06981	3.83494
0.06981	3.83204
0.06981	3.83800
0.06981	3.83994
0.06981	3.84074
0.06981	3.84219
0.06981	3.83961
0.06981	3.83800
0.06981	3.83800
0.06981	3.84300
0.06981	3.83687
0.06981	3.84396
0.06981	3.84332
0.06981	3.84026
0.06981	3.84139
0.06981	3.84106
0.06981	3.84686
0.06981	3.84412
0.06981	3.84219
0.06981	3.84461
0.06981	3.84284
0.06981	3.84316
0.06981	3.84638
0.06981	3.84896
0.06981	3.85073
0.06981	3.84348
0.06981	3.84525
0.06981	3.85041
0.06981	3.85009
0.06981	3.84396
0.06981	3.84702
0.06981	3.84461
0.06981	3.84461
0.06981	3.85105
0.06981	3.85250
0.06981	3.85025
0.06981	3.84880
0.06981	3.84638
0.06981	3.84590
0.06981	3.84509
0.06981	3.84509
0.06981	3.84364
0.06981	3.84831
0.06981	3.84284
0.06981	3.85137
0.07854	3.84396
0.08727	3.83381
0.08727	3.83542
0.08727	3.83591
0.08727	3.83800
0.08727	3.82995
0.08727	3.82914
0.08727	3.82995
0.08727	3.83559
0.08727	3.83269
0.08727	3.83671
0.08727	3.83526
0.08727	3.83704
0.08727	3.83430
0.08727	3.83655
0.08727	3.83784
0.08727	3.83849
0.08727	3.83865
0.08727	3.83365
0.08727	3.83446
0.08727	3.83365
0.08727	3.83542
0.08727	3.83526
0.08727	3.83526
0.08727	3.83462
0.08727	3.83784
0.08727	3.83800
0.08727	3.84042
0.08727	3.83977
0.08727	3.83623
0.08727	3.83720
0.08727	3.83752
0.08727	3.83526
0.08727	3.84090
0.08727	3.84251
0.08727	3.84042
0.08727	3.83381
0.08727	3.83269
0.08727	3.83285
0.08727	3.83478
0.10036	3.82366
0.11345	3.81093
0.11781	3.80256
0.11781	3.80385
0.11781	3.80497
0.11781	3.80191
0.11781	3.80932
0.11781	3.80723
0.11781	3.80755
0.11781	3.80723
0.11781	3.80965
0.11781	3.81238
0.11781	3.80723
0.11781	3.81029
0.11781	3.81029
0.11781	3.80755
0.11781	3.80626
0.11781	3.81255
0.11781	3.80401
0.11781	3.80449
0.11781	3.80578
0.11781	3.80207
0.11781	3.80256
0.11781	3.80626
0.11781	3.80948
0.11781	3.80900
0.11781	3.80852
0.11781	3.80014
0.11781	3.80513
0.11781	3.80546
0.11781	3.80707
0.13090	3.80256
0.14399	3.78661
0.14835	3.78242
0.14835	3.77758
0.14835	3.77468
0.14835	3.77436
0.14835	3.77646
0.14835	3.77436
0.14835	3.77388
0.14835	3.78290
0.14835	3.77807
0.14835	3.78065
0.14835	3.77968
0.14835	3.78290
0.14835	3.78210
0.14835	3.78290
0.14835	3.78000
0.14835	3.78065
0.14835	3.77839
0.14835	3.78177
0.14835	3.77839
0.14835	3.77903
0.14835	3.77726
0.14835	3.78306
0.14835	3.78290
0.14835	3.77565
0.14835	3.77259
0.14835	3.77275
0.14835	3.77855
0.14835	3.78242
0.16144	3.76083
0.17453	3.74423
0.17453	3.74520
0.17453	3.74520
0.17453	3.74472
0.17453	3.74504
0.17453	3.74343
0.17453	3.74504
0.17453	3.74762
0.17453	3.74939
0.17453	3.74826
0.17453	3.74456
0.17453	3.74681
0.17453	3.74456
0.17453	3.74504
0.17453	3.74681
0.17453	3.74584
0.17453	3.74762
0.17453	3.74391
0.17453	3.74665
0.17453	3.74858
0.17453	3.74778
0.17453	3.74987
0.17453	3.74939
0.17453	3.74794
0.17453	3.74987
0.17453	3.75197
0.17453	3.74762
0.17453	3.74359
0.18326	3.73183
0.18762	3.72780
0.18762	3.72909
0.18762	3.72619
0.18762	3.72667
0.18762	3.72957
0.18762	3.72651
0.18762	3.72393
0.18762	3.72135
0.18762	3.72860
0.18762	3.72957
0.18762	3.72893
0.18762	3.72844
0.18762	3.72748
0.18762	3.72361
0.18762	3.72280
0.18762	3.72538
0.18762	3.72393
0.18762	3.72812
0.18762	3.72748
0.18762	3.72957
0.18762	3.72635
0.18762	3.72764
0.18762	3.73086
0.18762	3.73005
0.18762	3.72603
0.18762	3.72425
0.18762	3.72764
0.18762	3.72651
0.18762	3.72699
0.18762	3.73022
0.18762	3.72619
0.18762	3.72603
0.18762	3.72570
0.18762	3.72393
0.18762	3.72425
0.18762	3.72538
0.18762	3.72619
0.18762	3.72732
0.18762	3.72877
0.18762	3.72828
0.18762	3.72667
0.18762	3.72152
0.18762	3.72909
0.18762	3.72635
0.18762	3.72538
0.18762	3.72603
0.20071	3.70299
0.20071	3.69880
0.20071	3.69944
0.20071	3.70122
0.20071	3.70202
0.20071	3.70412
0.20071	3.70041
0.20071	3.70460
0.20071	3.70750
0.20071	3.70782
0.20071	3.70653
0.20071	3.70589
0.20071	3.70734
0.20071	3.70476
0.20071	3.70557
0.20071	3.70734
0.20071	3.70138
0.20071	3.70315
0.20071	3.70202
0.20071	3.70041
0.20071	3.70105
0.20071	3.69977
0.20071	3.70363
0.20071	3.70234
0.20071	3.70524
0.20071	3.69864
0.20071	3.70234
0.20071	3.70315
0.20071	3.70154
0.20071	3.70395
0.20071	3.70363
0.20071	3.70154
0.20071	3.69944
0.20071	3.69928
0.20071	3.70041
0.20071	3.70057
0.20071	3.70218
0.20071	3.69751
0.21380	3.69106
0.21817	3.67028
0.22253	3.66883
0.22253	3.66561
0.22253	3.66738
0.22253	3.66883
0.22253	3.66819
0.22253	3.67044
0.22253	3.67238
0.22253	3.67125
0.22253	3.67157
0.22253	3.67189
0.22253	3.67205
0.22253	3.67431
0.22253	3.67350
0.22253	3.67334
0.22253	3.67254
0.22253	3.67189
0.22253	3.67334
0.22253	3.66915
0.22253	3.66786
0.22253	3.66625
0.22253	3.66609
0.22253	3.67189
0.22253	3.66706
0.22253	3.66641
0.22253	3.66996
0.22253	3.67093
0.22253	3.67060
0.22253	3.66931
0.22253	3.66593
0.22253	3.66609
0.22253	3.66738
0.22253	3.66996
0.22253	3.66964
0.22253	3.66658
0.22253	3.66770
0.22253	3.67173
0.23998	3.64209
0.24435	3.63467
0.24435	3.63403
0.24435	3.63161
0.24435	3.63000
0.24435	3.62791
0.24435	3.63226
0.24435	3.63258
0.24435	3.63451
0.24435	3.63645
0.24435	3.63387
0.24435	3.63306
0.24435	3.63822
0.24435	3.63757
0.24435	3.63951
0.24435	3.63838
0.24435	3.63629
0.24435	3.63194
0.24435	3.63709
0.24435	3.63580
0.24435	3.63371
0.24435	3.63242
0.24435	3.63516
0.24435	3.62968
0.24435	3.63532
0.24435	3.63532
0.24435	3.63339
0.24435	3.63564
0.24435	3.62533
0.24435	3.62871
0.24435	3.62968
0.24435	3.63032
0.24435	3.62839
0.25307	3.61566
0.26180	3.58988
0.27053	3.57136
0.27053	3.57861
0.27053	3.57683
0.27053	3.57716
0.27053	3.58167
0.27053	3.58441
0.27053	3.57990
0.27053	3.58022
0.27053	3.58328
0.27053	3.58038
0.27053	3.58618
0.27053	3.58425
0.27053	3.58441
0.27053	3.58263
0.27053	3.58135
0.27053	3.57893
0.27053	3.58376
0.27053	3.57780
0.27053	3.57764
0.27053	3.57909
0.27053	3.58022
0.27053	3.58280
0.27053	3.57828
0.27053	3.57990
0.27053	3.57990
0.27053	3.58054
0.27053	3.58038
0.27053	3.57780
0.27053	3.58151
0.27053	3.57973
0.27053	3.58038
0.27053	3.58006
0.27053	3.58022
0.27053	3.58038
0.27053	3.57184
0.27053	3.57232
0.27053	3.56781
0.27053	3.56878
0.27053	3.57168
0.28798	3.53446
0.29234	3.51642
0.29234	3.52125
0.29234	3.52624
0.29234	3.52093
0.29234	3.52641
0.29234	3.52351
0.29234	3.53059
0.29234	3.53156
0.29234	3.53253
0.29234	3.53172
0.29234	3.53140
0.29234	3.52882
0.29234	3.53140
0.29234	3.53140
0.29234	3.52834
0.29234	3.52882
0.29234	3.52769
0.29234	3.52769
0.29234	3.52850
0.29234	3.52834
0.29234	3.52786
0.29234	3.53011
0.29234	3.52673
0.29234	3.53027
0.29234	3.53237
0.29234	3.53253
0.29234	3.52979
0.29234	3.53333
0.29234	3.53333
0.29234	3.53349
0.29234	3.53059
0.29234	3.52737
0.29234	3.52850
0.29234	3.52850
0.29234	3.52753
0.29234	3.52979
0.29234	3.52463
0.29234	3.52415
0.29234	3.52367
0.29234	3.52802
0.29234	3.52592
0.29234	3.52367
0.29234	3.52222
0.30980	3.48999
0.31852	3.47227
0.31852	3.47324
0.31852	3.47759
0.31852	3.47340
0.31852	3.47163
0.31852	3.47147
0.31852	3.47404
0.31852	3.47759
0.31852	3.47791
0.31852	3.47807
0.31852	3.47646
0.31852	3.47598
0.31852	3.47598
0.31852	3.47130
0.31852	3.47324
0.31852	3.47791
0.31852	3.48049
0.31852	3.47243
0.31852	3.47936
0.31852	3.47759
0.31852	3.47791
0.31852	3.47565
0.31852	3.47404
0.31852	3.47598
0.31852	3.48081
0.31852	3.47952
0.31852	3.48452
0.31852	3.47936
0.31852	3.47775
0.31852	3.47710
0.31852	3.47453
0.31852	3.47920
0.31852	3.47533
0.31852	3.47050
0.31852	3.47437
0.31852	3.47034
0.31852	3.47437
0.31852	3.47662
0.31852	3.47501
0.31852	3.47292
0.31852	3.48000
0.31852	3.47855
0.31852	3.47694
0.31852	3.47404
0.33598	3.42684
0.34470	3.39929
0.34470	3.40380
0.34470	3.40074
0.34470	3.39832
0.34470	3.40186
0.34470	3.40299
0.34470	3.40186
0.34470	3.40621
0.34470	3.40944
0.34470	3.40911
0.34470	3.40509
0.34470	3.40847
0.34470	3.40331
0.34470	3.40090
0.34470	3.40509
0.34470	3.40186
0.34470	3.40009
0.34470	3.40315
0.34470	3.40557
0.34470	3.40895
0.34470	3.40782
0.34470	3.40976
0.34470	3.40847
0.34470	3.40799
0.34470	3.41137
0.34470	3.40605
0.34470	3.40992
0.34470	3.40573
0.34470	3.41121
0.34470	3.41443
0.34470	3.40847
0.34470	3.40992
0.34470	3.40541
0.34470	3.40041
0.34470	3.40251
0.34470	3.40557
0.34470	3.40347
0.34470	3.40895
0.34470	3.40412
0.34470	3.41314
0.34470	3.41056
0.34470	3.41040
0.34470	3.40541
0.34470	3.41459
0.34470	3.41298
0.34470	3.40654
0.34470	3.40944
0.34470	3.40702
0.36216	3.37480
0.37088	3.33903
0.37525	3.33645
0.37525	3.33371
0.37525	3.33323
0.37525	3.32630
0.37525	3.32985
0.37525	3.33001
0.37525	3.33001
0.37525	3.32840
0.37525	3.33258
0.37525	3.33146
0.37525	3.32920
0.37525	3.33226
0.37525	3.33194
0.37525	3.33146
0.37525	3.33355
0.37525	3.33226
0.37525	3.33436
0.37525	3.33210
0.37525	3.33323
0.37525	3.33307
0.37525	3.32936
0.37525	3.32695
0.37525	3.33017
0.37525	3.33307
0.37525	3.33113
0.37525	3.33226
0.37525	3.32968
0.37525	3.33001
0.37525	3.33291
0.37525	3.32952
0.37525	3.33387
0.37525	3.33113
0.37525	3.33275
0.37525	3.33484
0.37525	3.33339
0.37525	3.33226
0.37525	3.33194
0.37525	3.33210
0.37525	3.33581
0.37525	3.32872
0.37525	3.32582
0.37525	3.32888
0.37525	3.33436
0.37525	3.32807
0.37525	3.32856
0.37525	3.32968
0.37525	3.32823
0.37525	3.32727
0.37525	3.33468
0.37525	3.33516
0.37525	3.33323
0.37525	3.33307
0.37525	3.33242
0.37525	3.34000
0.37525	3.33049
0.37525	3.33113
0.37525	3.32840
0.37525	3.32695
0.37525	3.32082
0.37525	3.32308
0.37525	3.31889
0.37525	3.32533
0.37525	3.32469
0.37525	3.31776
0.37525	3.32098
0.38834	3.29182
0.41015	3.20836
0.41888	3.18484
0.41888	3.18516
0.41888	3.18823
0.41888	3.18307
0.41888	3.18549
0.41888	3.18339
0.41888	3.18533
0.41888	3.19096
0.41888	3.19193
0.41888	3.19064
0.41888	3.18887
0.41888	3.19080
0.41888	3.19080
0.41888	3.19129
0.41888	3.19096
0.41888	3.19193
0.41888	3.19096
0.41888	3.18613
0.41888	3.18678
0.41888	3.18226
0.41888	3.18516
0.41888	3.18388
0.41888	3.18968
0.41888	3.18903
0.41888	3.19241
0.41888	3.19676
0.41888	3.20273
0.41888	3.20079
0.41888	3.19805
0.41888	3.19950
0.41888	3.19515
0.41888	3.19386
0.41888	3.19757
0.41888	3.19290
0.41888	3.19596
0.41888	3.19000
0.41888	3.18855
0.41888	3.18629
0.41888	3.18516
0.41888	3.18388
0.41888	3.18065
0.41888	3.18162
0.41888	3.18307
0.41888	3.18468
0.44070	3.12765
0.44942	3.09107
0.44942	3.08640
0.44942	3.09542
0.44942	3.09720
0.44942	3.09816
0.44942	3.09687
0.44942	3.09526
0.44942	3.09333
0.44942	3.09865
0.44942	3.09558
0.44942	3.10251
0.44942	3.10010
0.44942	3.10074
0.44942	3.09816
0.44942	3.09446
0.44942	3.09462
0.44942	3.09268
0.44942	3.09639
0.44942	3.09365
0.44942	3.09365
0.44942	3.09091
0.44942	3.09526
0.44942	3.08866
0.44942	3.08850
0.44942	3.09172
0.44942	3.09575
0.44942	3.09623
0.44942	3.09349
0.44942	3.09365
0.44942	3.08721
0.44942	3.09123
0.44942	3.08914
0.44942	3.09558
0.44942	3.09123
0.44942	3.09075
0.44942	3.08624
0.44942	3.08334
0.44942	3.08463
0.44942	3.08028
0.44942	3.08431
0.44942	3.08672
0.44942	3.08382
0.44942	3.08270
0.44942	3.08270
0.44942	3.08495
0.44942	3.08560
0.44942	3.08447
0.44942	3.07158
0.44942	3.06868
0.44942	3.07625
0.44942	3.08382
0.44942	3.08286
0.44942	3.07931
0.47997	3.00294
0.48433	2.97684
0.48433	2.97410
0.48433	2.97862
0.48433	2.98329
0.48433	2.98168
0.48433	2.97990
0.48433	2.98103
0.48433	2.98748
0.48433	2.98651
0.48433	2.98297
0.48433	2.98442
0.48433	2.98458
0.48433	2.98071
0.48433	2.98248
0.48433	2.97894
0.48433	2.98135
0.48433	2.98458
0.48433	2.98393
0.48433	2.98087
0.48433	2.98184
0.48433	2.97958
0.48433	2.98313
0.48433	2.98232
0.48433	2.98329
0.48433	2.98522
0.48433	2.98055
0.48433	2.98216
0.48433	2.98248
0.48433	2.98361
0.48433	2.97829
0.48433	2.98490
0.48433	2.98667
0.48433	2.98490
0.48433	2.98538
0.48433	2.98425
0.48433	2.98538
0.48433	2.98297
0.48433	2.98570
0.48433	2.98313
0.48433	2.97233
0.48433	2.97926
0.48433	2.97910
0.48433	2.97813
0.48433	2.97588
0.48433	2.97555
0.48433	2.97958
0.48433	2.97588
0.48433	2.97394
0.48433	2.97185
0.48433	2.97104
0.48433	2.96943
0.51051	2.89242
0.51924	2.86632
0.51924	2.86004
0.51924	2.86439
0.51924	2.86423
0.51924	2.86600
0.51924	2.86858
0.51924	2.87019
0.51924	2.87051
0.51924	2.87518
0.51924	2.87293
0.51924	2.87728
0.51924	2.86503
0.51924	2.87228
0.51924	2.87067
0.51924	2.87357
0.51924	2.87663
0.51924	2.87695
0.51924	2.87454
0.51924	2.87953
0.51924	2.87679
0.51924	2.87711
0.51924	2.87776
0.51924	2.87357
0.51924	2.87196
0.51924	2.87164
0.51924	2.86584
0.51924	2.87180
0.51924	2.87115
0.51924	2.87019
0.51924	2.87051
0.51924	2.87244
0.51924	2.86584
0.51924	2.86680
0.51924	2.86600
0.51924	2.86874
0.51924	2.86455
0.51924	2.87051
0.51924	2.86519
0.51924	2.86535
0.51924	2.86229
0.51924	2.85569
0.54105	2.78995
0.54542	2.76095
0.54542	2.76047
0.54542	2.76160
0.54542	2.76933
0.54542	2.77287
0.54542	2.77867
0.54542	2.77755
0.54542	2.78737
0.54542	2.78915
0.54542	2.78544
0.54542	2.78415
0.54542	2.78915
0.54542	2.78866
0.54542	2.78705
0.54542	2.78866
0.54542	2.78560
0.54542	2.78866
0.54542	2.78818
0.54542	2.78592
0.54542	2.78077
0.54542	2.78560
0.54542	2.78641
0.54542	2.79317
0.54542	2.78608
0.54542	2.78173
0.54542	2.78399
0.54542	2.77561
0.54542	2.77690
0.54542	2.77432
0.54542	2.77674
0.54542	2.77626
0.54542	2.76997
0.54542	2.77158
0.54542	2.76772
0.54542	2.77046
0.54542	2.76466
0.54542	2.76272
0.55851	2.72937
0.56723	2.70843
0.56723	2.69651
0.56723	2.69651
0.56723	2.70214
0.56723	2.70053
0.56723	2.70682
0.56723	2.70730
0.56723	2.70778
0.56723	2.70891
0.56723	2.70972
0.56723	2.71681
0.56723	2.71084
0.56723	2.70811
0.56723	2.70730
0.56723	2.70359
0.56723	2.70601
0.56723	2.70327
0.56723	2.70633
0.56723	2.70553
0.56723	2.70649
0.56723	2.70456
0.56723	2.70263
0.56723	2.70730
0.56723	2.70456
0.56723	2.70488
0.56723	2.70778
0.56723	2.70231
0.56723	2.70504
0.56723	2.70585
0.56723	2.70601
0.56723	2.70633
0.56723	2.70456
0.56723	2.70005
0.56723	2.69876
0.56723	2.69844
0.56723	2.69747
0.56723	2.69844
0.56723	2.70134
0.56723	2.69844
0.56723	2.69747
0.56723	2.68668
0.58905	2.62545
0.59341	2.61595
0.59341	2.61128
0.59341	2.61273
0.59341	2.61144
0.59341	2.60274
0.59341	2.60644
0.59341	2.60725
0.59341	2.60677
0.59341	2.60370
0.59341	2.60515
0.59341	2.60886
0.59341	2.60725
0.59341	2.60741
0.59341	2.61208
0.59341	2.60805
0.59341	2.61273
0.59341	2.61305
0.59341	2.61273
0.59341	2.61498
0.59341	2.61901
0.59341	2.61708
0.59341	2.61756
0.59341	2.61530
0.59341	2.61369
0.59341	2.61965
0.59341	2.62062
0.59341	2.61708
0.59341	2.61788
0.59341	2.62078
0.59341	2.62014
0.59341	2.61804
0.59341	2.61627
0.59341	2.61289
0.59341	2.61031
0.59341	2.60644
0.59341	2.60370
0.60214	2.57841
0.61959	2.51574
0.62832	2.47836
0.63705	2.44646
0.64577	2.41746
0.64577	2.40908
0.64577	2.41021
0.64577	2.41440
0.64577	2.41762
0.64577	2.41472
0.64577	2.41585
0.64577	2.42261
0.64577	2.42294
0.64577	2.42584
0.64577	2.42390
0.64577	2.42761
0.64577	2.42793
0.64577	2.42696
0.64577	2.42616
0.64577	2.42664
0.64577	2.42535
0.64577	2.42213
0.64577	2.42584
0.64577	2.41955
0.64577	2.42374
0.64577	2.42358
0.64577	2.42487
0.64577	2.41939
0.64577	2.41697
0.64577	2.42342
0.64577	2.42406
0.64577	2.42471
0.64577	2.42358
0.64577	2.42068
0.64577	2.42519
0.64577	2.42197
0.64577	2.42052
0.64577	2.41794
0.64577	2.41649
0.64577	2.42068
0.64577	2.41375
0.64577	2.41359
0.64577	2.41488
0.64577	2.41375
0.64577	2.41617
0.64577	2.41198
0.64577	2.40715
0.64577	2.40682
0.64577	2.40537
0.64577	2.41133
0.64577	2.40795
0.64577	2.40376
0.64577	2.40553
0.64577	2.40199
0.64577	2.41133
0.64577	2.41037
0.64577	2.41053
0.64577	2.41117
0.64577	2.40956
0.64577	2.41053
0.64577	2.40698
0.64577	2.40280
0.64577	2.40827
0.64577	2.40489
0.64577	2.40280
0.66323	2.34931
0.66759	2.32739
0.66759	2.32433
0.66759	2.32337
0.66759	2.32401
0.66759	2.32691
0.66759	2.33207
0.66759	2.33465
0.66759	2.33916
0.66759	2.33529
0.66759	2.33062
0.66759	2.32917
0.66759	2.33626
0.66759	2.33126
0.66759	2.33593
0.66759	2.33674
0.66759	2.34173
0.66759	2.34190
0.66759	2.34157
0.66759	2.34125
0.66759	2.33964
0.66759	2.34335
0.66759	2.34028
0.66759	2.33706
0.66759	2.33610
0.66759	2.33755
0.66759	2.33803
0.66759	2.33658
0.66759	2.33980
0.66759	2.33577
0.66759	2.34012
0.66759	2.33529
0.66759	2.33448
0.66759	2.33352
0.66759	2.32659
0.66759	2.32643
0.66759	2.32933
0.66759	2.32546
0.68068	2.27826
0.69813	2.21687
0.71122	2.17273
0.71122	2.17112
0.71122	2.17563
0.71122	2.17740
0.71122	2.17756
0.71122	2.17965
0.71122	2.17982
0.71122	2.17514
0.71122	2.17933
0.71122	2.17627
0.71122	2.18110
0.71122	2.17820
0.71122	2.17901
0.71122	2.17933
0.71122	2.17772
0.71122	2.17611
0.71122	2.17675
0.71122	2.17611
0.71122	2.17659
0.71122	2.17772
0.71122	2.17949
0.71122	2.17772
0.71122	2.17708
0.71122	2.17627
0.71122	2.17659
0.71122	2.17579
0.71122	2.17901
0.71122	2.18078
0.71122	2.17692
0.71122	2.17402
0.71122	2.17321
0.71122	2.16950
0.71122	2.16564
0.71122	2.16451
0.71122	2.16370
0.71122	2.16499
0.71122	2.16338
0.71122	2.16322
0.71122	2.16080
0.71122	2.16097
0.71122	2.16628
0.71122	2.16580
0.71122	2.16451
0.72431	2.14389
0.73304	2.08589
0.73740	2.06720
0.73740	2.06816
0.73740	2.06720
0.73740	2.07139
0.73740	2.07219
0.73740	2.07074
0.73740	2.07139
0.73740	2.07686
0.73740	2.07848
0.73740	2.08121
0.73740	2.07864
0.73740	2.07848
0.73740	2.07541
0.73740	2.07429
0.73740	2.07799
0.73740	2.07993
0.73740	2.08331
0.73740	2.08170
0.73740	2.08250
0.73740	2.07880
0.73740	2.07880
0.73740	2.08009
0.73740	2.07638
0.73740	2.07848
0.73740	2.07493
0.73740	2.07590
0.73740	2.07622
0.73740	2.07461
0.73740	2.07106
0.73740	2.07606
0.73740	2.06784
0.73740	2.06865
0.73740	2.06929
0.73740	2.06671
0.73740	2.06865
0.73740	2.06913
0.73740	2.06849
0.73740	2.06011
0.73740	2.06381
0.73740	2.06140
0.73740	2.06236
0.75485	2.00162
0.75922	1.99260
0.75922	1.98970
0.75922	1.99470
0.75922	1.99727
0.75922	1.99115
0.75922	1.99550
0.75922	2.00082
0.75922	2.00614
0.75922	1.99840
0.75922	1.99921
0.75922	2.00356
0.75922	2.00146
0.75922	2.00259
0.75922	2.00179
0.75922	2.00340
0.75922	2.00130
0.75922	2.00469
0.75922	2.00324
0.75922	2.00356
0.75922	2.00452
0.75922	2.00082
0.75922	1.99953
0.75922	2.00324
0.75922	2.00597
0.75922	1.99953
0.75922	1.99985
0.75922	2.00114
0.75922	1.99856
0.75922	1.99679
0.75922	1.99985
0.75922	1.99969
0.75922	1.99566
0.75922	1.99856
0.75922	1.99695
0.75922	1.99470
0.75922	1.99115
0.75922	1.99083
0.75922	1.99196
0.75922	1.99292
0.75922	1.98100
0.75922	1.98004
0.76794	1.94217
0.78103	1.89980
0.78976	1.86629
0.79412	1.84631
0.79849	1.81908
0.80285	1.81731
0.80285	1.81618
0.79849	1.83085
0.79849	1.84615
0.79849	1.84325
0.79849	1.84567
0.79849	1.84712
0.79849	1.84663
0.79849	1.84776
0.79849	1.84357
0.79849	1.84518
0.79849	1.84373
0.79849	1.84148
0.79849	1.84567
0.79849	1.84325
0.79849	1.84567
0.79849	1.84825
0.79849	1.84760
0.79849	1.84696
0.79849	1.84760
0.79849	1.85002
0.79849	1.85034
0.79849	1.84357
0.79849	1.84438
0.79849	1.84647
0.79849	1.84132
0.79849	1.84422
0.79849	1.84454
0.79849	1.84245
0.79849	1.84293
0.79849	1.83600
0.79849	1.83777
0.79849	1.83745
0.81594	1.78992
0.82030	1.76366
0.82467	1.74691
0.82467	1.74674
0.82467	1.74900
0.82467	1.74932
0.82467	1.75013
0.82467	1.75238
0.82467	1.74465
0.82467	1.74707
0.82467	1.75271
0.82467	1.74964
0.82467	1.75238
0.82467	1.75061
0.82467	1.75174
0.82467	1.74594
0.82467	1.75077
0.82467	1.75093
0.82467	1.75013
0.82467	1.75271
0.82467	1.74787
0.82467	1.74546
0.82467	1.74981
0.82467	1.74868
0.82467	1.75158
0.82467	1.74691
0.82467	1.74981
0.82467	1.74948
0.82467	1.74964
0.82467	1.75190
0.82467	1.74674
0.82467	1.74481
0.82467	1.74900
0.82467	1.74143
0.82467	1.74143
0.82467	1.73676
0.82467	1.74014
0.82467	1.73724
0.82467	1.73692
0.82467	1.73402
0.83339	1.70437
0.85085	1.63364
0.85957	1.60899
0.85957	1.60400
0.85957	1.61141
0.85957	1.61077
0.85957	1.60867
0.85957	1.60899
0.85957	1.60497
0.85957	1.60432
0.85957	1.60529
0.85957	1.60448
0.85957	1.60706
0.85957	1.60352
0.85957	1.61028
0.85957	1.60915
0.85957	1.61109
0.85957	1.61060
0.85957	1.61141
0.85957	1.60883
0.85957	1.61205
0.85957	1.61028
0.85957	1.60867
0.85957	1.60674
0.85957	1.60932
0.85957	1.60980
0.85957	1.60948
0.85957	1.60529
0.85957	1.59723
0.85957	1.60400
0.85957	1.60207
0.85957	1.60545
0.85957	1.60158
0.85957	1.60738
0.85957	1.60899
0.85957	1.60932
0.85957	1.61060
0.85957	1.61012
0.85957	1.60319
0.85957	1.61060
0.85957	1.60609
0.85957	1.60561
0.85957	1.60770
0.85957	1.60126
0.85957	1.60561
0.85957	1.60819
0.85957	1.60448
0.87703	1.54036
0.89012	1.49460
0.89012	1.48300
0.89012	1.48913
0.89012	1.48784
0.89012	1.48719
0.89012	1.49315
0.89012	1.49396
0.89012	1.49638
0.89012	1.49428
0.89012	1.49686
0.89012	1.49525
0.89012	1.49509
0.89012	1.49750
0.89012	1.49799
0.89012	1.49718
0.89012	1.49331
0.89012	1.49364
0.89012	1.49331
0.89012	1.49154
0.89012	1.49074
0.89012	1.49283
0.89012	1.48945
0.89012	1.49186
0.89012	1.49058
0.89012	1.49476
0.89012	1.49154
0.89012	1.48880
0.89012	1.49219
0.89012	1.49058
0.89012	1.48977
0.90321	1.45578
0.90757	1.42629
0.90757	1.42533
0.90757	1.42887
0.90757	1.42259
0.90757	1.42533
0.90757	1.42114
0.90757	1.42710
0.90757	1.42484
0.90757	1.42371
0.90757	1.42871
0.90757	1.42806
0.90757	1.42484
0.90757	1.42984
0.90757	1.42823
0.90757	1.42613
0.90757	1.42661
0.90757	1.42436
0.90757	1.42516
0.90757	1.42629
0.91193	1.42033
0.91193	1.41840
0.91193	1.42533
0.91193	1.42420
0.91193	1.42742
0.91193	1.42436
0.91193	1.41920
0.91193	1.42001
0.91193	1.42323
0.91193	1.41985
0.91193	1.42210
0.91193	1.42162
0.91193	1.42033
0.91193	1.42468
0.91193	1.42371
0.91193	1.42001
0.91193	1.41791
0.91193	1.42065
0.91193	1.42355
0.91193	1.42226
0.91193	1.42339
0.91193	1.41840
0.91193	1.42081
0.91193	1.42210
0.91193	1.42243
0.91193	1.42178
0.91193	1.42307
0.91193	1.41824
0.91193	1.41808
0.91193	1.42114
0.91193	1.41920
0.91193	1.41775
0.91193	1.41904
0.91193	1.42017
0.91193	1.41501
0.91193	1.41630
0.92939	1.34783
0.93375	1.33317
0.93375	1.33156
0.93375	1.32834
0.93375	1.32608
0.93375	1.33188
0.93375	1.32834
0.93375	1.32834
0.93375	1.33252
0.93375	1.32415
0.93375	1.32366
0.93375	1.33075
0.93375	1.33140
0.93375	1.33188
0.93375	1.32431
0.93375	1.32898
0.93375	1.32995
0.93375	1.32270
0.93375	1.32592
0.93375	1.32382
0.93375	1.32737
0.93375	1.32898
0.93375	1.32656
0.93375	1.32560
0.93375	1.33172
0.93375	1.32511
0.93375	1.32334
0.93375	1.32753
0.93375	1.32705
0.93375	1.32495
0.93375	1.32914
0.93375	1.32801
0.93375	1.32914
0.94684	1.28467
0.95557	1.24504
0.95557	1.24488
0.95557	1.24440
0.95557	1.24617
0.95557	1.24182
0.95557	1.24649
0.95557	1.24778
0.95557	1.24907
0.95557	1.25100
0.95557	1.24681
0.95557	1.24504
0.95557	1.24746
0.95557	1.24665
0.95557	1.24391
0.95557	1.24311
0.95557	1.24714
0.95557	1.24842
0.95557	1.24875
0.95557	1.24440
0.95557	1.24311
0.95557	1.24198
0.95557	1.24295
0.95557	1.24730
0.95557	1.24697
0.95557	1.24182
0.95557	1.24424
0.95557	1.24569
0.95557	1.24279
0.95557	1.24407
0.96866	1.20992
0.97302	1.18366
0.97738	1.17560
0.97738	1.17383
0.97738	1.16867
0.97738	1.17480
0.97738	1.17286
0.97738	1.17173
0.97738	1.17286
0.97738	1.16883
0.97738	1.17560
0.97738	1.17753
0.97738	1.17415
0.97738	1.17608
0.97738	1.17673
0.97738	1.17947
0.97738	1.18913
0.97738	1.18478
0.97738	1.18881
0.97738	1.18801
0.97738	1.19010
0.97738	1.19091
0.97738	1.19010
0.97738	1.18591
0.97738	1.19155
0.97738	1.19268
0.97738	1.19348
0.97738	1.18752
0.97738	1.19139
0.97738	1.18962
0.97738	1.18881
0.97738	1.18962
0.97738	1.18527
0.97738	1.18027
0.97738	1.18720
0.97738	1.17818
0.98175	1.16320
0.98175	1.15981
0.98175	1.15852
0.98175	1.16271
0.98175	1.16191
0.99047	1.14741
0.99920	1.10036
1.00356	1.09263
1.00356	1.09408
1.00356	1.08941
1.00356	1.08828
1.00356	1.08812
1.00356	1.09279
1.00356	1.09021
1.00356	1.09505
1.00356	1.09875
1.00356	1.09891
1.00356	1.09730
1.00356	1.09795
1.00356	1.09859
1.00356	1.09521
1.00356	1.09440
1.00356	1.09488
1.00356	1.09633
1.00356	1.09585
1.00356	1.09746
1.00356	1.09505
1.00356	1.09424
1.00356	1.09569
1.00356	1.09456
1.00356	1.09215
1.00356	1.09231
1.00356	1.08812
1.01229	1.06041
1.01229	1.05670
1.01229	1.05863
1.01229	1.05751
1.01229	1.05831
1.01229	1.05928
1.01229	1.05428
1.01229	1.05670
1.01229	1.05606
1.01229	1.05445
1.02974	1.00273
1.03411	0.98098
1.03847	0.97212
1.03847	0.97228
1.03847	0.97018
1.03847	0.97357
1.03847	0.97196
1.03847	0.97228
1.03847	0.97276
1.03847	0.97437
1.03847	0.97324
1.03847	0.97341
1.03847	0.97179
1.03847	0.97647
1.03847	0.97743
1.03847	0.97502
1.03847	0.97389
1.03847	0.98066
1.03847	0.98356
1.03847	0.98356
1.03847	0.98162
1.03847	0.98323
1.03847	0.98114
1.03847	0.98146
1.03847	0.97437
1.03847	0.97196
1.03847	0.97341
1.04720	0.95488
1.05592	0.90638
1.06029	0.89865
1.06029	0.89801
1.06029	0.89929
1.06029	0.89639
1.06029	0.89946
1.06029	0.89639
1.06029	0.89929
1.06029	0.90155
1.06029	0.90364
1.06029	0.90671
1.06029	0.90042
1.06029	0.90429
1.06029	0.90364
1.06029	0.90735
1.06029	0.90654
1.06029	0.90413
1.06029	0.90526
1.06029	0.90348
1.06029	0.90348
1.06029	0.90445
1.06029	0.90622
1.06029	0.90332
1.06029	0.90123
1.06029	0.90203
1.06029	0.89962
1.06029	0.89978
1.06029	0.90010
1.06029	0.89768
1.06029	0.90203
1.06901	0.88753
1.07774	0.85386
1.08210	0.83582
1.08210	0.83775
1.08210	0.83936
1.08210	0.83598
1.08210	0.83582
1.08210	0.83050
1.08210	0.83549
1.08210	0.83598
1.08210	0.83678
1.08210	0.83710
1.08210	0.83549
1.08210	0.83501
1.08210	0.83662
1.08210	0.83469
1.08210	0.83485
1.08210	0.83872
1.08210	0.83678
1.08210	0.83598
1.08210	0.83082
1.08210	0.83002
1.08210	0.82969
1.08647	0.81906
1.08647	0.81793
1.08647	0.81858
1.08647	0.81761
1.08647	0.81680
1.09083	0.80875
1.09956	0.77153
1.10392	0.76219
1.10392	0.76187
1.10392	0.75977
1.10392	0.76187
1.10392	0.75897
1.10392	0.75913
1.10828	0.74253
1.11265	0.73722
1.11265	0.73705
1.11265	0.73786
1.11265	0.73593
1.11265	0.73625
1.11265	0.73722
1.11265	0.74285
1.11265	0.74350
1.11265	0.74479
1.11265	0.74398
1.11265	0.74737
1.11265	0.74656
1.11265	0.74575
1.11265	0.74704
1.11265	0.74640
1.11265	0.74463
1.11265	0.74173
1.11265	0.74221
1.11265	0.73850
1.11265	0.74221
1.11265	0.74205
1.11265	0.74302
1.11265	0.74076
1.11265	0.74108
1.11265	0.73883
1.11265	0.74092
1.11265	0.73383
1.11701	0.73029
1.12137	0.70660
1.12574	0.69065
1.13010	0.67712
1.13010	0.67793
1.13010	0.68034
1.13010	0.68018
1.13010	0.67760
1.13010	0.67857
1.13010	0.67809
1.13010	0.67728
1.13883	0.66069
1.13883	0.66101
1.13883	0.65666
1.13883	0.66085
1.13883	0.66085
1.13883	0.66504
1.13883	0.66713
1.13883	0.66939
1.13883	0.66826
1.13883	0.67213
1.13883	0.67164
1.13883	0.66987
1.13883	0.67035
1.13883	0.66600
1.13883	0.67197
1.13883	0.67503
1.13883	0.67052
1.13883	0.67132
1.13883	0.67229
1.13883	0.67084
1.13883	0.66939
1.13883	0.66230
1.13883	0.65747
1.14319	0.64119
1.14755	0.62927
1.15192	0.62621
1.15192	0.62315
1.15192	0.62557
1.15192	0.62363
1.15192	0.62266
1.15192	0.62492
1.15628	0.60623
1.16064	0.59334
1.16501	0.58577
1.16501	0.58609
1.16501	0.58819
1.16501	0.58577
1.16501	0.58561
1.16501	0.58980
1.16501	0.58883
1.16501	0.59028
1.16501	0.59302
1.16501	0.59125
1.16501	0.59125
1.16501	0.59028
1.16501	0.59366
1.16501	0.59093
1.16501	0.59012
1.16501	0.59189
1.16501	0.59012
1.16501	0.58674
1.16501	0.58786
1.16501	0.59189
1.16501	0.58706
1.16501	0.58480
1.16501	0.58335
1.16501	0.58577
1.16501	0.59044
1.16501	0.58770
1.16501	0.58738
1.17373	0.56064
1.17373	0.55709
1.17373	0.55903
1.17373	0.56048
1.17373	0.55210
1.17373	0.55725
1.17373	0.55935
1.17810	0.55870
1.18246	0.53856
1.18682	0.52745
1.18682	0.52906
1.18682	0.52584
1.18682	0.52390
1.18682	0.52858
1.18682	0.52423
1.18682	0.52423
1.18682	0.53003
1.18682	0.53003
1.18682	0.52825
1.18682	0.53035
1.18682	0.53035
1.18682	0.53196
1.18682	0.52664
1.18682	0.53035
1.18682	0.52535
1.18682	0.53051
1.18682	0.52793
1.18682	0.52761
1.18682	0.52535
1.18682	0.52938
1.18682	0.52584
1.18682	0.52503
1.18682	0.52713
1.19119	0.52133
1.19119	0.51295
1.19119	0.51327
1.19119	0.51359
1.19119	0.51375
1.19119	0.50779
1.19991	0.50376
1.20864	0.47621
1.21300	0.46026
1.21737	0.44963
1.21737	0.44673
1.21737	0.44415
1.21737	0.44915
1.21737	0.44641
1.21737	0.44270
1.21737	0.44464
1.21737	0.44593
1.21737	0.44415
1.21737	0.44399
1.21737	0.44544
1.21737	0.44995
1.21737	0.45108
1.21737	0.44995
1.21737	0.45575
1.21737	0.45446
1.21737	0.45221
1.21737	0.45414
1.21737	0.44609
1.21737	0.45366
1.21737	0.45140
1.21737	0.45092
1.21737	0.45414
1.21737	0.44770
1.21737	0.44850
1.21737	0.44464
1.21737	0.44625
1.21737	0.44496
1.22609	0.43368
1.23046	0.41564
1.23918	0.40098
1.24355	0.38647
1.24355	0.38438
1.24355	0.38406
1.24355	0.38261
1.24355	0.37987
1.24355	0.38341
1.24355	0.38325
1.24355	0.38551
1.24355	0.38712
1.24355	0.38776
1.24355	0.38792
1.24355	0.38728
1.24355	0.38599
1.24355	0.38825
1.24355	0.38583
1.24355	0.38325
1.24355	0.38954
1.24355	0.38454
1.24355	0.38921
1.24355	0.38309
1.24355	0.38551
1.24355	0.38599
1.24355	0.38454
1.24355	0.38325
1.24355	0.38664
1.24355	0.38261
1.24355	0.38180
1.24355	0.38728
1.24791	0.37906
1.25227	0.37262
1.25227	0.37487
1.25227	0.37246
1.25664	0.36215
1.26100	0.34330
1.26536	0.33250
1.26536	0.33669
1.26536	0.33669
1.26536	0.33589
1.26536	0.33524
1.26536	0.33347
1.26536	0.33121
1.26536	0.33331
1.26536	0.33540
1.26536	0.33540
1.26536	0.33572
1.26536	0.33492
1.26536	0.33653
1.26536	0.33653
1.26536	0.33460
1.26536	0.33589
1.26536	0.33460
1.26536	0.33862
1.26973	0.33637
1.26973	0.33476
1.26973	0.33605
1.26973	0.33701
1.26973	0.33734
1.26973	0.33717
1.26973	0.33637
1.26973	0.33089
1.26973	0.33685
1.26973	0.33427
1.27845	0.31011
1.28718	0.29851
1.28718	0.29657
1.28718	0.29577
1.28718	0.29287
1.28718	0.29480
1.28718	0.29367
1.28718	0.29432
1.28718	0.29271
1.28718	0.29802
1.28718	0.29480
1.28718	0.30382
1.28718	0.29770
1.28718	0.29287
1.28718	0.29625
1.28718	0.29512
1.28718	0.29577
1.28718	0.29738
1.28718	0.29835
1.28718	0.29625
1.29591	0.27031
1.30463	0.25501
1.30463	0.25146
1.30463	0.25388
1.30463	0.25243
1.30463	0.26065
1.30463	0.25340
1.30463	0.25324
1.30463	0.25211
1.30463	0.25420
1.30463	0.25581
1.30463	0.25630
1.30463	0.25533
1.30463	0.25227
1.30463	0.25581
1.30463	0.25614
1.30463	0.25356
1.30463	0.26097
1.30900	0.25275
1.30900	0.24792
1.30900	0.24711
1.30900	0.24647
1.30900	0.24518
1.30900	0.24389
1.30900	0.24276
1.30900	0.24309
1.30900	0.24357
1.30900	0.24292
1.30900	0.24099
1.30900	0.23970
1.30900	0.24131
1.30900	0.24647
1.30900	0.24470
1.30900	0.24421
1.30900	0.24276
1.30900	0.24292
1.31336	0.23777
1.31772	0.23229
1.31772	0.23084
1.31772	0.22971
1.31772	0.23020
1.31772	0.22891
1.31772	0.23068
1.31772	0.23181
1.31772	0.22875
1.31772	0.22810
1.31772	0.23149
1.31772	0.23294
1.31772	0.23068
1.31772	0.22955
1.31772	0.23181
1.31772	0.23132
1.31772	0.22907
1.33081	0.21280
1.33081	0.20941
1.33081	0.20957
1.33081	0.21215
1.33081	0.20845
1.33081	0.20764
1.33081	0.21006
1.33081	0.20474
1.33081	0.20474
1.33081	0.20329
1.33081	0.21119
1.33081	0.20732
1.33081	0.20490
1.33081	0.20909
1.33081	0.20716
1.33081	0.20748
1.33518	0.20087
1.33518	0.19604
1.33518	0.19572
1.33518	0.20071
1.33518	0.20087
1.33518	0.19797
1.33518	0.19507
1.33518	0.19443
1.33518	0.20055
1.33518	0.19910
1.33518	0.19556
1.33954	0.18686
1.34390	0.17784
1.34827	0.17494
1.34827	0.17687
1.34827	0.17703
1.34827	0.17542
1.34827	0.17639
1.34827	0.17204
1.34827	0.17349
1.34827	0.17349
1.34827	0.17639
1.34827	0.17477
1.34827	0.17042
1.34827	0.17075
1.34827	0.17671
1.34827	0.17800
1.34827	0.17477
1.34827	0.17155
1.35699	0.15625
1.36572	0.15222
1.36572	0.13578
1.36572	0.14819
1.36572	0.14658
1.36572	0.14787
1.36572	0.14916
1.36572	0.14916
1.36572	0.14964
1.36572	0.14400
1.36572	0.14787
1.36572	0.14835
1.36572	0.14996
1.36572	0.15238
1.36572	0.15125
1.36572	0.15270
1.36572	0.15480
1.36136	0.16027
1.36136	0.16221
1.36136	0.16156
1.36136	0.16124
1.36136	0.15866
1.36136	0.15915
1.36136	0.16140
1.36136	0.16108
1.36136	0.16172
1.36136	0.16221
1.36136	0.15657
1.36136	0.15786
1.36136	0.16076
1.36572	0.14690
1.36572	0.14497
1.36572	0.14368
1.36572	0.14658
1.37445	0.14142
1.37445	0.13804
1.37445	0.13756
1.37445	0.13659
1.38317	0.12982
1.38754	0.11806
1.39626	0.10856
1.39626	0.10517
1.39626	0.10179
1.39626	0.10743
1.39626	0.10372
1.39626	0.10195
1.40063	0.09647
1.40063	0.10711
1.40063	0.10614
1.40499	0.09825
1.40499	0.09567
1.40935	0.09228
1.40935	0.09228
1.40935	0.09116
1.40935	0.09438
1.40935	0.09390
1.40935	0.09245
1.40935	0.08922
1.41372	0.08681
1.41372	0.08600
1.41372	0.08407
1.41372	0.08729
1.41372	0.08262
1.41372	0.08391
1.41808	0.08487
1.42244	0.07698
1.42244	0.07456
1.42244	0.07505
1.42244	0.07601
1.42244	0.07585
1.42244	0.07360
1.42244	0.07521
1.42244	0.07488
1.42244	0.07488
1.42244	0.06989
1.43117	0.06586
1.43990	0.05813
1.44426	0.04717
1.44862	0.05120
1.44862	0.05072
1.44862	0.04911
1.44862	0.05297
1.44862	0.04862
1.44862	0.04991
1.44862	0.05072
1.44862	0.05136
1.44862	0.04975
1.44862	0.05023
1.44862	0.04605
1.44862	0.04814
1.44862	0.04991
1.45299	0.04427
1.45735	0.04137
1.45735	0.04025
1.45735	0.04089
1.45735	0.04218
1.45735	0.03944
1.45735	0.03509
1.45735	0.03509
1.46171	0.03783
1.46608	0.03122
1.46608	0.03235
1.46608	0.03267
1.46608	0.03461
1.46608	0.03461
1.46608	0.03396
1.46608	0.03283
1.46608	0.03428
1.46608	0.03187
1.46608	0.03267
1.47480	0.03010
1.47480	0.02784
1.47480	0.02865
1.47480	0.02961
1.47480	0.02848
1.47480	0.02462
1.47480	0.02720
1.47917	0.02558
1.48353	0.02252
1.48353	0.02285
1.48353	0.02333
1.48353	0.02430
1.48353	0.02494
1.48353	0.02188
1.48353	0.02188
1.48353	0.02172
1.48353	0.02365
1.49226	0.01769
1.49226	0.01705
1.49226	0.01398
1.49226	0.01737
1.49226	0.01479
1.49662	0.01253
1.49662	0.01366
1.49662	0.01318
1.49662	0.00738
1.49662	0.00867
1.50535	0.00770
1.50971	0.00609
1.50971	0.00480
1.50971	0.00770
1.50971	0.00512
1.50971	0.00416
1.50971	0.00367
1.50971	0.00271
1.50971	0.00335
1.50971	0.00287
1.51844	0.00271
1.52280	0.00126
1.52280	-0.00132
1.52280	0.00013
1.52280	-0.00132
1.52280	-0.00535
1.52280	-0.00535
1.52280	-0.00406
1.52280	-0.00180
1.52280	0.00093
1.52280	0.00222
1.52280	0.00255
1.53153	-0.00116
1.53153	-0.00503
1.53589	-0.00293
1.53589	-0.00309
1.53589	-0.00664
1.53589	-0.00760
1.53589	-0.00793
1.53589	-0.00551
1.53589	-0.00615
1.53589	-0.00857
1.53589	-0.00841
1.54462	-0.00358
1.54898	-0.00551
1.54898	-0.00680
1.54898	-0.00760
1.54898	-0.00583
1.54898	-0.00632
1.54898	-0.00648
1.54898	-0.01147
1.55771	-0.01260
1.56207	-0.00809
1.56207	-0.00583
1.56207	-0.00599
1.56207	-0.00664
1.56207	-0.00825
1.56207	-0.01067
1.56643	-0.01163
1.57080	-0.01340
1.57516	-0.01163
1.57516	-0.01212
1.57516	-0.01276
1.57516	-0.01373
1.57516	-0.00648
1.57516	-0.01276
1.58389	-0.00648
1.58825	-0.01099
1.59261	-0.00760
1.59261	-0.00680
1.59261	-0.00793
1.59261	-0.00793
1.59261	-0.01131
1.59261	-0.00648
1.59261	-0.00825
1.59261	-0.00599
1.59261	-0.01276
1.59261	-0.01324
1.59698	-0.01067
1.60134	-0.00519
1.60134	-0.00309
1.60134	-0.01566
1.60134	-0.00551
1.60134	-0.00535
1.60134	-0.00535
1.60134	-0.00519
1.60134	-0.00712
1.61007	-0.00438
1.61443	-0.00100
1.61879	-0.00744
1.61879	-0.00116
1.61879	0.00110
1.61879	0.00770
1.61879	-0.00116
1.61879	-0.00019
1.61879	-0.00422
1.61879	-0.00213
1.61879	0.00029
1.61879	-0.00422
1.61443	-0.00728
1.61443	-0.00535
1.61443	-0.00680
1.61443	-0.00712
1.61443	-0.00261
1.61443	-0.00551
1.61443	-0.00019
1.61443	-0.00342
1.61443	-0.00390
1.61443	-0.00116
1.61443	-0.00374
1.61443	-0.00325
1.62316	0.00029
1.63188	0.00706
1.64061	0.01060
1.64497	0.01286
1.64934	0.01398
1.64934	0.01286
1.64934	0.01028
1.64934	0.01076
1.65370	0.01366
1.65370	0.01318
1.65370	0.01656
1.65370	0.01705
1.65370	0.01511
1.65370	0.01769
1.65370	0.01978
1.65806	0.01447
1.66243	0.02043
1.66679	0.02301
1.66679	0.02123
1.66679	0.02478
1.66679	0.02140
1.66679	0.02655
1.66679	0.02494
1.66679	0.02091
1.66679	0.02687
1.66679	0.02204
1.66679	0.02123
1.66679	0.02494
1.66679	0.02123
1.66679	0.01946
1.66679	0.02510
1.66679	0.02542
1.66679	0.02462
1.67988	0.03364
1.68861	0.03670
1.69297	0.04427
1.69297	0.04427
1.69297	0.04621
1.69297	0.04621
1.69733	0.04975
1.70170	0.05265
1.70606	0.05877
1.70606	0.05378
1.70606	0.05765
1.70606	0.05893
1.70606	0.05620
1.70606	0.05700
1.71042	0.06264
1.71479	0.06667
1.71915	0.06908
1.71915	0.07263
1.71915	0.07343
1.71915	0.07263
1.71915	0.07215
1.71915	0.07118
1.72788	0.08036
1.73224	0.08745
1.73660	0.09116
1.74097	0.09325
1.74533	0.09744
1.74533	0.09438
1.74533	0.09857
1.75406	0.10662
1.75842	0.11951
1.76278	0.12515
1.76278	0.12048
1.76278	0.12016
1.76278	0.12048
1.76278	0.12241
1.76278	0.12241
1.76278	0.12016
1.76278	0.12064
1.76278	0.12354
1.76278	0.12531
1.76278	0.12209
1.76278	0.12306
1.76278	0.12547
1.76278	0.12096
1.76278	0.11887
1.76278	0.12161
1.76278	0.11532
1.76278	0.12128
1.76278	0.12402
1.76278	0.12563
1.76278	0.11774
1.76278	0.11758
1.76278	0.11967
1.76278	0.12354
1.76278	0.12628
1.76278	0.11919
1.76278	0.12128
1.76278	0.11887
1.76278	0.11742
1.76278	0.12000
1.76278	0.11806
1.76278	0.12177
1.76278	0.12338
1.76278	0.12257
1.76278	0.12145
1.76278	0.12499
1.76278	0.12370
1.76278	0.12886
1.76278	0.12435
1.76278	0.12048
1.76278	0.12032
1.76278	0.12354
1.76278	0.11903
1.76278	0.12257
1.76278	0.12032
1.76278	0.12241
1.76278	0.12257
1.76278	0.12145
1.76278	0.12338
1.76278	0.12467
1.76278	0.12483
1.76278	0.12370
1.76278	0.12547
1.76278	0.12499
1.76278	0.12306
1.76278	0.12016
1.76278	0.12386
1.76278	0.12563
1.76278	0.12209
1.76278	0.11983
1.76278	0.12048
1.76278	0.12209
1.76278	0.12241
1.76278	0.12467
1.76278	0.12451
1.76278	0.12708
1.76278	0.12209
1.76278	0.11919
1.76278	0.12322
1.76278	0.12547
1.76278	0.12467
1.76715	0.12032
1.77151	0.13723
1.77151	0.14013
1.77151	0.14013
1.77151	0.14690
1.77151	0.13788
1.77151	0.13949
1.77151	0.13450
1.77587	0.14336
1.78024	0.15238
1.78460	0.15480
1.78460	0.15447
1.78460	0.15383
1.78460	0.15770
1.78896	0.16769
1.79333	0.17236
1.79769	0.17332
1.79769	0.17590
1.79769	0.17767
1.80642	0.19137
1.81078	0.19926
1.81078	0.20023
1.81514	0.20941
1.81951	0.21473
1.82387	0.22150
1.82387	0.22214
1.82823	0.23567
1.83260	0.24212
1.83696	0.24969
1.84132	0.25936
1.84569	0.26886
1.85005	0.27708
1.85441	0.29013
1.85441	0.28095
1.85441	0.28175
1.85441	0.27982
1.85441	0.28079
1.85441	0.27917
1.85441	0.28224
1.85441	0.27740
1.85441	0.27740
1.85441	0.28272
1.85441	0.28207
1.85441	0.28288
1.85441	0.27901
1.85878	0.29013
1.85878	0.28932
1.85878	0.29222
1.85878	0.29287
1.86750	0.31414
1.87623	0.32702
1.87623	0.32912
1.87623	0.32976
1.87623	0.32912
1.88932	0.35667
1.89805	0.37971
1.90241	0.39115
1.90241	0.39260
1.90241	0.39179
1.90241	0.39179
1.90241	0.39083
1.90241	0.38954
1.90241	0.38486
1.90677	0.39244
1.91114	0.41193
1.91550	0.41709
1.91550	0.41983
1.91550	0.41757
1.91550	0.41709
1.91550	0.41805
1.91550	0.41709
1.91550	0.41838
1.91550	0.41596
1.91550	0.41918
1.91550	0.41709
1.91550	0.42079
1.91550	0.41612
1.91550	0.41531
1.91550	0.41676
1.91550	0.41596
1.91550	0.41854
1.91550	0.41950
1.91550	0.41902
1.91550	0.41032
1.91550	0.41564
1.91550	0.41370
1.91550	0.41773
1.91550	0.41241
1.92423	0.43868
1.93295	0.46268
1.93295	0.46333
1.93295	0.46268
1.93295	0.46687
1.93295	0.46204
1.93295	0.46300
1.93295	0.46333
1.93295	0.45914
1.93295	0.46413
1.93295	0.45962
1.93295	0.46123
1.94168	0.48185
1.95913	0.52278
1.96350	0.53276
1.96350	0.53325
1.96786	0.54823
1.96786	0.54324
1.96786	0.55081
1.96786	0.55000
1.96786	0.55000
1.96786	0.55210
1.96786	0.54855
1.96786	0.54855
1.96786	0.54759
1.96786	0.55049
1.96786	0.55178
1.96786	0.55226
1.96786	0.54759
1.96786	0.54984
1.96786	0.55194
1.96786	0.55000
1.97659	0.57562
1.97659	0.57272
1.97659	0.57304
1.97659	0.57336
1.97659	0.57369
1.97659	0.57369
1.97659	0.57514
1.97659	0.57498
1.97659	0.57127
1.97659	0.57578
1.97659	0.57562
1.97659	0.57320
1.98968	0.60978
1.98968	0.60849
1.98968	0.61010
1.99404	0.61976
1.99404	0.61831
1.99404	0.62041
1.99404	0.62395
1.99404	0.62283
1.99404	0.62138
1.99404	0.62089
1.99404	0.61928
1.99840	0.63717
1.99840	0.63523
1.99840	0.63620
1.99840	0.63829
1.99840	0.63668
1.99840	0.63781
1.99840	0.63491
2.00277	0.64828
2.00277	0.64506
2.00713	0.65956
2.00713	0.65892
2.00713	0.65714
2.00713	0.66020
2.00713	0.66004
2.00713	0.65908
2.00713	0.65763
2.00713	0.65682
2.00713	0.65763
2.00713	0.66004
2.00713	0.65602
2.00713	0.65779
2.00713	0.65505
2.00713	0.65698
2.00713	0.65150
2.00713	0.65489
2.00713	0.65392
2.00713	0.65424
2.00713	0.65811
2.00713	0.65924
2.00713	0.65875
2.00713	0.65747
2.00713	0.65763
2.00713	0.65892
2.00713	0.65763
2.00713	0.65714
2.00713	0.65972
2.00713	0.65988
2.00713	0.65569
2.00713	0.65408
2.00713	0.65602
2.01149	0.66101
2.01586	0.68663
2.01586	0.68969
2.01586	0.69500
2.01586	0.69033
2.01586	0.69114
2.01586	0.69259
2.01586	0.69259
2.02458	0.71820
2.02895	0.72964
2.02895	0.72739
2.02895	0.73319
2.02895	0.72449
2.02895	0.72610
2.02895	0.73303
2.02895	0.72755
2.02895	0.72900
2.03767	0.75349
2.04640	0.77524
2.04640	0.77943
2.04640	0.78152
2.04640	0.78023
2.04640	0.78007
2.04640	0.77943
2.04640	0.77443
2.04640	0.77508
2.04640	0.77846
2.04640	0.77508
2.04640	0.77782
2.04640	0.77894
2.04640	0.77814
2.04640	0.77330
2.04640	0.77733
2.04640	0.78055
2.04640	0.78313
2.04640	0.77862
2.04640	0.77733
2.05513	0.79876
2.06385	0.82953
2.06385	0.82808
2.06385	0.83050
2.06385	0.82567
2.06385	0.82277
2.06385	0.82824
2.06822	0.83807
2.06822	0.84629
2.06822	0.83839
2.06822	0.84548
2.07694	0.86627
2.08131	0.88238
2.08131	0.88657
2.08131	0.88189
2.08131	0.88769
2.08567	0.90123
2.08567	0.90832
2.08567	0.90413
2.08567	0.90074
2.08567	0.90493
2.08567	0.90526
2.08567	0.90509
2.08567	0.90816
2.08567	0.90944
2.08567	0.90268
2.08567	0.90606
2.08567	0.90332
2.08567	0.90703
2.08567	0.90912
2.08567	0.90622
2.08567	0.90944
2.08567	0.91025
2.08567	0.90832
2.08567	0.90767
2.09876	0.93297
2.10312	0.95729
2.10312	0.96293
2.10312	0.96019
2.10312	0.96471
2.10312	0.96471
2.10312	0.96358
2.11185	0.98323
2.11185	0.98662
2.11185	0.98839
2.11185	0.98243
2.11185	0.98452
2.11185	0.98678
2.11185	0.98774
2.11185	0.98307
2.11621	1.00933
2.11621	1.00869
2.11621	1.00837
2.11621	1.00998
2.11621	1.00917
2.11621	1.00966
2.11621	1.01513
2.11621	1.00901
2.11621	1.00933
2.11621	1.00708
2.11621	1.00369
2.11621	1.00466
2.11621	1.00740
2.11621	1.00353
2.11621	1.00434
2.11621	1.00659
2.11621	1.00289
2.11621	1.00498
2.11621	1.00708
2.11621	1.00224
2.11621	1.00627
2.11621	1.00144
2.11621	0.99870
2.11621	0.99838
2.11621	1.00273
2.11621	1.00450
2.11621	1.00933
2.11621	1.00756
2.12494	1.02045
2.13367	1.05670
2.13367	1.05912
2.13367	1.06363
2.13367	1.05799
2.13367	1.06379
2.13367	1.06250
2.13367	1.06266
2.13367	1.05912
2.13367	1.05767
2.13367	1.05960
2.14239	1.08731
2.14239	1.08280
2.14239	1.08699
2.14239	1.08635
2.14239	1.08151
2.14239	1.08667
2.14239	1.08699
2.14239	1.09102
2.14239	1.08635
2.14239	1.08651
2.14239	1.08828
2.15112	1.11051
2.15548	1.13532
2.15548	1.13355
2.15548	1.13275
2.15548	1.13226
2.15548	1.13146
2.15548	1.13049
2.15548	1.13081
2.15548	1.13597
2.15548	1.13468
2.15548	1.13565
2.15548	1.13661
2.15548	1.13436
2.15548	1.13436
2.15548	1.13307
2.15548	1.13436
2.15548	1.12711
2.15548	1.13436
2.15548	1.12920
2.15548	1.13500
2.15548	1.12856
2.15548	1.12856
2.15548	1.13420
2.15548	1.13436
2.15548	1.13758
2.15548	1.13629
2.15548	1.13726
2.15548	1.13758
2.15548	1.13822
2.16857	1.17576
2.17730	1.21008
2.18166	1.22281
2.18166	1.22361
2.18166	1.22120
2.18166	1.22087
2.18166	1.22345
2.18166	1.22667
2.18166	1.22361
2.18166	1.22538
2.18602	1.24150
2.18602	1.24971
2.18602	1.25165
2.18602	1.25229
2.18602	1.25229
2.18602	1.24504
2.18602	1.24891
2.18602	1.24778
2.18602	1.25229
2.20348	1.29676
2.20348	1.31303
2.20348	1.31061
2.20348	1.31190
2.20348	1.31206
2.20348	1.31174
2.20348	1.30836
2.20348	1.31512
2.20348	1.30981
2.20348	1.31239
2.20348	1.31351
2.20784	1.31964
2.20784	1.31819
2.21220	1.33397
2.21220	1.33832
2.21220	1.33510
2.21220	1.33929
2.21220	1.34058
2.21220	1.34235
2.21220	1.33945
2.21220	1.33639
2.21220	1.33913
2.21220	1.33832
2.22529	1.38585
2.22966	1.39665
2.22966	1.39697
2.22966	1.40148
2.22966	1.39359
2.22966	1.40148
2.22966	1.39955
2.22966	1.39842
2.23838	1.43064
2.24711	1.46448
2.24711	1.46431
2.24711	1.47285
2.24711	1.46609
2.24711	1.46786
2.24711	1.46721
2.24711	1.47044
2.24711	1.46915
2.24711	1.46802
2.24711	1.46738
2.24711	1.46576
2.24711	1.47173
2.24711	1.47108
2.24711	1.47543
2.24711	1.46915
2.24711	1.47124
2.24711	1.47253
2.24711	1.47237
2.24711	1.47156
2.24711	1.47189
2.24711	1.46883
2.24711	1.46850
2.24711	1.47140
2.24711	1.47140
2.24711	1.46931
2.24711	1.46866
2.24711	1.46802
2.26020	1.50894
2.26020	1.51104
2.26020	1.51635
2.26020	1.51635
2.26020	1.51474
2.26020	1.51603
2.26020	1.51603
2.26893	1.55502
2.28202	1.59643
2.28638	1.62220
2.28638	1.62655
2.28638	1.62301
2.28638	1.62365
2.28638	1.62720
2.28638	1.62317
2.28638	1.62140
2.28638	1.62591
2.28638	1.61850
2.28638	1.62237
2.28638	1.62607
2.28638	1.62156
2.28638	1.62446
2.28638	1.62575
2.28638	1.62462
2.28638	1.62188
2.28638	1.62398
2.28638	1.62365
2.28638	1.62478
2.28638	1.61640
2.28638	1.61930
2.28638	1.62462
2.28638	1.62398
2.28638	1.62204
2.28638	1.62253
2.28638	1.62317
2.30383	1.67070
2.30820	1.70115
2.30820	1.70453
2.30820	1.70308
2.30820	1.70115
2.32129	1.74594
2.32565	1.76028
2.32565	1.76012
2.32565	1.76302
2.32565	1.75931
2.32565	1.75786
2.33001	1.77558
2.33438	1.80491
2.33874	1.81409
2.33874	1.81199
2.33874	1.81683
2.33874	1.81796
2.34310	1.82714
2.34747	1.84261
2.34747	1.84212
2.34747	1.84841
2.34747	1.84454
2.34747	1.84019
2.34747	1.84357
2.34747	1.84486
2.34747	1.84003
2.34747	1.84228
2.34747	1.84003
2.34747	1.83906
2.34747	1.84019
2.34747	1.84148
2.34747	1.84180
2.34747	1.83681
2.34747	1.83955
2.34747	1.83922
2.34747	1.83874
2.34747	1.84228
2.34747	1.84261
2.36492	1.90915
2.37365	1.94830
2.37365	1.95039
2.37365	1.95104
2.37365	1.94878
2.37365	1.94652
2.37365	1.95297
2.37365	1.94636
2.37365	1.95265
2.37365	1.94685
2.38674	1.99019
2.38674	1.99631
2.38674	1.99196
2.38674	1.99147
2.38674	1.99744
2.38674	1.99518
2.38674	1.99856
2.38674	1.99292
2.38674	1.99663
2.39983	2.04206
2.39983	2.05028
2.39983	2.04674
2.39983	2.04835
2.39983	2.04851
2.39983	2.04561
2.39983	2.04706
2.39983	2.04851
2.39983	2.05157
2.40855	2.08105
2.41292	2.09362
2.41292	2.10280
2.41292	2.10474
2.41292	2.10200
2.41292	2.10119
2.41292	2.09797
2.41292	2.10135
2.41728	2.12343
2.41728	2.12053
2.41728	2.12101
2.41728	2.12471
2.41728	2.12101
2.41728	2.12246
2.41728	2.12117
2.41728	2.12230
2.41728	2.12391
2.41728	2.11940
2.41728	2.12423
2.41728	2.12214
2.42601	2.13825
2.42601	2.14566
2.42601	2.14485
2.42601	2.14663
2.42601	2.14373
2.42601	2.14647
2.42601	2.13938
2.42601	2.13986
2.43037	2.16161
2.43037	2.16193
2.43037	2.16306
2.43037	2.15935
2.43037	2.15903
2.43037	2.15533
2.43037	2.15517
2.43037	2.15500
2.43037	2.15823
2.43037	2.16016
2.43910	2.20076
2.44346	2.21139
2.44346	2.21993
2.44346	2.21655
2.44346	2.21590
2.44346	2.21590
2.44346	2.21687
2.45219	2.23330
2.45219	2.24007
2.45219	2.24281
2.45219	2.24458
2.45219	2.24362
2.45219	2.24861
2.45655	2.26666
2.45655	2.26359
2.46091	2.28325
2.46091	2.28357
2.46091	2.27922
2.46091	2.28309
2.46964	2.31289
2.47400	2.32337
2.47400	2.32272
2.47400	2.32079
2.47837	2.34431
2.48273	2.36075
2.49146	2.39087
2.49582	2.40731
2.49582	2.40779
2.49582	2.41311
2.49582	2.41133
2.49582	2.41568
2.49582	2.41907
2.49582	2.41343
2.49582	2.41826
2.49582	2.41681
2.49582	2.41971
2.49582	2.41488
2.49582	2.41762
2.49582	2.41568
2.49582	2.41391
2.49582	2.41440
2.49582	2.41617
2.49582	2.42294
2.49582	2.41536
2.49582	2.41327
2.50455	2.42471
2.51327	2.46096
2.51764	2.47336
2.51764	2.47820
2.51764	2.47642
2.51764	2.47836
2.52636	2.50655
2.53073	2.53298
2.53073	2.53652
2.53073	2.53571
2.53073	2.53507
2.53945	2.56117
2.54818	2.59629
2.55691	2.62449
2.56127	2.63496
2.56127	2.63609
2.56127	2.63754
2.56127	2.64044
2.56127	2.63544
2.57000	2.65881
2.57436	2.68346
2.58309	2.71165
2.58309	2.71938
2.58309	2.72035
2.58309	2.71922
2.58309	2.71906
2.58309	2.71664
2.58309	2.71648
2.59181	2.73582
2.59618	2.75918
2.60054	2.77384
2.60054	2.76546
2.60054	2.77030
2.60054	2.77287
2.60054	2.77303
2.60054	2.77416
2.60054	2.76385
2.60054	2.76643
2.60054	2.76707
2.60054	2.76401
2.60490	2.78222
2.60927	2.80639
2.60927	2.80413
2.60927	2.79881
2.60927	2.80316
2.60927	2.80316
2.60927	2.80526
2.62236	2.83732
2.62236	2.84247
2.62236	2.83974
2.62672	2.86455
2.62672	2.86584
2.63545	2.87889
2.64417	2.90628
2.64854	2.92658
2.64854	2.93350
2.64854	2.93512
2.64854	2.93093
2.64854	2.92738
2.64854	2.92899
2.64854	2.93173
2.64854	2.93431
2.64854	2.93189
2.64854	2.93383
2.64854	2.93608
2.64854	2.93399
2.64854	2.93254
2.64854	2.93238
2.64854	2.93173
2.65290	2.93431
2.66599	2.97588
2.67472	3.00311
2.67908	3.01664
2.68344	3.03758
2.69217	3.04886
2.69217	3.05563
2.69217	3.05386
2.69217	3.05531
2.69217	3.05579
2.69217	3.05047
2.69217	3.05531
2.69217	3.05643
2.69217	3.05047
2.69217	3.05917
2.70526	3.09752
2.70962	3.11154
2.70962	3.11379
2.70962	3.11427
2.70962	3.11621
2.70962	3.11170
2.70962	3.11315
2.70962	3.10976
2.70962	3.11154
2.70962	3.11041
2.70962	3.11186
2.70962	3.10799
2.72271	3.14521
2.72708	3.15890
2.72708	3.16084
2.72708	3.16116
2.72708	3.15697
2.72708	3.15939
2.72708	3.16067
2.72708	3.15471
2.72708	3.15826
2.72708	3.16148
2.72708	3.16003
2.72708	3.15826
2.73580	3.17066
2.74017	3.18130
2.74453	3.19161
2.74453	3.19177
2.74453	3.19306
2.74453	3.19048
2.74453	3.19902
2.74453	3.19258
2.75326	3.21094
2.75762	3.22947
2.75762	3.22931
2.75762	3.22818
2.75762	3.23092
2.75762	3.23269
2.75762	3.23140
2.75762	3.23527
2.75762	3.23640
2.75762	3.23366
2.75762	3.23640
2.75762	3.23914
2.76635	3.25976
2.77507	3.27474
2.77507	3.27861
2.77507	3.27764
2.77507	3.28667
2.77507	3.27571
2.77507	3.27394
2.77507	3.27442
2.77507	3.27297
2.78380	3.30181
2.78816	3.31083
2.78816	3.32002
2.79253	3.31728
2.79253	3.31663
2.79253	3.31841
2.79253	3.31905
2.79253	3.31744
2.79253	3.32050
2.79253	3.32662
2.79253	3.32711
2.79253	3.32533
2.79253	3.32598
2.79253	3.32469
2.79253	3.32356
2.79253	3.32131
2.79253	3.31857
2.79253	3.32098
2.79253	3.32163
2.79253	3.32243
2.79689	3.32421
2.80998	3.34886
2.81434	3.36030
2.81434	3.35208
2.81434	3.35997
2.81434	3.35901
2.81434	3.35901
2.81871	3.36771
2.81871	3.37496
2.81871	3.38124
2.81871	3.37141
2.81871	3.37576
2.81871	3.36835
2.81871	3.36964
2.81871	3.37157
2.81871	3.37850
2.81871	3.37689
2.81871	3.37351
2.81871	3.37367
2.81871	3.37512
2.81871	3.37737
2.83180	3.40025
2.83616	3.41556
2.83616	3.41991
2.83616	3.41588
2.83616	3.41991
2.83616	3.41524
2.83616	3.41588
2.83616	3.42007
2.84489	3.43441
2.85361	3.44778
2.85361	3.45165
2.85361	3.45503
2.85361	3.45133
2.85361	3.45213
2.85361	3.45664
2.85361	3.45809
2.85361	3.45890
2.85361	3.46099
2.86234	3.48065
2.86234	3.48613
2.86234	3.48919
2.86234	3.48806
2.86234	3.49177
2.86234	3.49032
2.86234	3.48580
2.87107	3.51561
2.87107	3.52061
2.87107	3.51722
2.87107	3.51626
2.87107	3.52383
2.87107	3.51883
2.87107	3.51368
2.87107	3.52238
2.87107	3.52109
2.87107	3.52866
2.88416	3.53994
2.88852	3.55025
2.88852	3.55218
2.88852	3.55331
2.88852	3.55412
2.88852	3.55895
2.88852	3.55895
2.89725	3.56250
2.90161	3.57522
2.90161	3.57361
2.90161	3.57651
2.90161	3.58102
2.90161	3.57651
2.90161	3.57587
2.90597	3.58843
2.91034	3.60181
2.91034	3.59230
2.91034	3.59633
2.91034	3.59375
2.91034	3.59166
2.91034	3.59117
2.91034	3.59488
2.91034	3.59359
2.91906	3.60680
2.92343	3.61808
2.92343	3.61872
2.92343	3.61856
2.92343	3.61679
2.92343	3.61856
2.92343	3.61534
2.92343	3.61776
2.92343	3.61147
2.92343	3.61550
2.92343	3.61727
2.92343	3.61776
2.92343	3.61856
2.92343	3.61437
2.92343	3.61776
2.92343	3.61566
2.92343	3.61792
2.92343	3.61727
2.92343	3.62066
2.92343	3.62291
2.92343	3.62034
2.92343	3.62243
2.92343	3.62436
2.93652	3.64080
2.94524	3.64853
2.94524	3.65111
2.94524	3.64950
2.94524	3.65530
2.94524	3.65498
2.94524	3.65159
2.95397	3.66464
2.96270	3.67254
2.96270	3.67818
2.96270	3.67801
2.96270	3.67995
2.96270	3.68253
2.96270	3.67979
2.96270	3.67995
2.97142	3.68446
2.97579	3.69638
2.98015	3.69187
2.98015	3.70041
2.98015	3.69332
2.98015	3.69348
2.98015	3.70025
2.98015	3.70009
2.98015	3.69960
2.98451	3.70122
2.98451	3.70218
2.98451	3.70879
2.98451	3.70492
2.98451	3.70540
2.98451	3.70412
2.98451	3.70283
2.98451	3.70057
2.99760	3.71088
3.00633	3.72329
3.01069	3.72844
3.01069	3.72554
3.01069	3.72619
3.01069	3.72377
3.01069	3.72377
3.01069	3.72280
3.01069	3.72732
3.01942	3.73295
3.02378	3.73956
3.02378	3.73924
3.02378	3.73827
3.02378	3.73763
3.02378	3.73714
3.02378	3.73279
3.02378	3.73811
3.02378	3.73215
3.02378	3.74214
3.02378	3.73763
3.02378	3.73102
3.02378	3.72490
3.02378	3.73247
3.02378	3.73038
3.02378	3.72248
3.02378	3.73312
3.02378	3.73279
3.02378	3.73344
3.02378	3.73666
3.03687	3.74439
3.04560	3.75293
3.04996	3.75648
3.04996	3.75793
3.04996	3.75519
3.04996	3.74923
3.04996	3.75471
3.04996	3.76179
3.06305	3.76582
3.06742	3.77404
3.06742	3.77066
3.06742	3.76614
3.06742	3.76679
3.06742	3.77033
3.06742	3.76840
3.07178	3.77436
3.08051	3.77775
3.08923	3.77613
3.08923	3.77903
3.08923	3.77839
3.08923	3.77920
3.08923	3.77517
3.08923	3.77404
3.08923	3.77517
3.09360	3.78113
3.10232	3.78757
3.10232	3.78258
3.10232	3.78306
3.10232	3.78757
3.10232	3.78532
3.10232	3.78322
3.10232	3.78210
3.10232	3.78161
3.10232	3.78290
3.11105	3.78193
3.11105	3.78467
3.11105	3.78741
3.11105	3.78435
3.11105	3.78822
3.11105	3.78403
3.11105	3.79241
3.11978	3.78725
3.12414	3.78193
3.12414	3.78999
3.12414	3.79112
3.12414	3.78935
3.12414	3.78822
3.12414	3.78564
3.12414	3.78693
3.13287	3.78516
3.13723	3.79096
3.13723	3.79515
3.13723	3.79305
3.13723	3.79450
3.13723	3.79257
3.13723	3.78870
3.13723	3.79692
3.13723	3.79933
3.13723	3.79708
3.14596	3.79450
