Polarization of Light 'theta' Data File Tue, Jan 23, 2018 10:01 AM
Sensor Position (Radians)	Light Intensity (Volts)
0.00000	-0.00954
0.00000	-0.01115
0.00000	-0.01179
0.00000	-0.00841
0.00000	-0.01050
0.00000	-0.01292
0.00000	-0.00905
0.00000	-0.01389
0.00000	-0.00938
0.00000	-0.01131
0.00000	-0.01373
0.00000	-0.00793
0.00000	-0.01083
0.00000	-0.01469
0.00000	-0.01437
0.00000	-0.01099
0.00000	-0.01340
0.00000	-0.01002
0.00000	-0.00744
0.00000	-0.01324
0.00000	-0.00809
0.00000	-0.01034
0.00000	-0.01453
0.00000	-0.01163
0.00000	-0.01018
0.00000	-0.01050
0.00000	-0.00825
0.00000	-0.00809
0.00000	-0.00664
0.00000	-0.00938
0.00000	-0.00744
0.00000	-0.01212
0.00000	-0.00954
0.00000	-0.00889
0.00000	-0.00760
0.00000	-0.01050
0.00000	-0.01550
0.00000	-0.00857
0.00000	-0.00873
0.00000	-0.01034
0.00000	-0.01308
0.00000	-0.01002
0.00000	-0.01067
0.00000	-0.01131
0.00000	-0.01050
0.00000	-0.00986
0.00000	-0.01453
0.00000	-0.01212
0.00000	-0.00841
0.00000	-0.00873
0.00000	-0.01034
0.00000	-0.00825
0.00000	-0.01324
0.00000	-0.00970
0.00000	-0.00938
0.00000	-0.01405
0.00000	-0.01050
0.00000	-0.00954
0.00000	-0.00857
0.00000	-0.00954
0.00000	-0.00841
0.00000	-0.00793
0.00000	-0.00922
0.00000	-0.00744
0.00000	-0.00938
0.00873	-0.01179
0.00873	-0.00986
0.01309	-0.01437
0.01309	-0.00760
0.01309	-0.00986
0.01309	-0.00793
0.01309	-0.01099
0.01309	-0.01034
0.01309	-0.00954
0.01309	-0.01147
0.01309	-0.01212
0.01309	-0.01018
0.01309	-0.01260
0.01309	-0.01034
0.01309	-0.01050
0.01309	-0.01034
0.01309	-0.00809
0.01309	-0.00777
0.01309	-0.01405
0.01309	-0.01340
0.01745	-0.00857
0.02182	-0.00841
0.02182	-0.01308
0.02182	-0.01083
0.02182	-0.00809
0.02182	-0.00922
0.02182	-0.00938
0.02182	-0.00954
0.02182	-0.00986
0.02182	-0.00777
0.02182	-0.01115
0.02182	-0.00954
0.02182	-0.00760
0.02182	-0.01421
0.02182	-0.00889
0.02182	-0.01147
0.02182	-0.00905
0.02182	-0.00760
0.02182	-0.00760
0.02182	-0.01131
0.02182	-0.01469
0.02182	-0.00777
0.02618	-0.00938
0.03054	-0.00922
0.03054	-0.00793
0.03054	-0.00825
0.03054	-0.00793
0.03054	-0.00777
0.03054	-0.00970
0.03054	-0.00857
0.03054	-0.00841
0.03054	-0.00583
0.03054	-0.00889
0.03054	-0.00712
0.03054	-0.00809
0.03054	-0.01212
0.03054	-0.00583
0.03054	-0.00632
0.03054	-0.00873
0.03054	-0.01131
0.03927	-0.01195
0.04363	-0.00873
0.04800	-0.00696
0.04800	-0.00954
0.04800	-0.00680
0.04800	-0.00632
0.04800	-0.00728
0.04800	-0.00519
0.04800	-0.00535
0.04800	-0.00358
0.04800	-0.00438
0.04800	-0.01179
0.04800	-0.01115
0.04800	-0.01067
0.04800	-0.00857
0.04800	-0.00615
0.04800	-0.00470
0.04800	-0.00551
0.04800	-0.00696
0.04800	-0.00470
0.04800	-0.00648
0.05236	-0.00374
0.05672	-0.00760
0.05672	-0.00245
0.05672	-0.00213
0.05672	-0.00599
0.05672	-0.00551
0.05672	-0.00744
0.05672	-0.00229
0.05672	-0.00744
0.05672	-0.00277
0.05672	-0.00293
0.05672	-0.00293
0.05672	-0.00696
0.05672	-0.00857
0.05672	-0.00583
0.05672	-0.00325
0.05672	-0.00470
0.05672	-0.00438
0.05672	-0.00261
0.05672	-0.00309
0.05672	-0.00680
0.06109	0.00061
0.06545	0.00126
0.06545	0.00077
0.06545	0.00142
0.06545	-0.00148
0.06545	-0.00390
0.06545	-0.00358
0.06545	-0.00197
0.06545	-0.00390
0.06545	0.00077
0.06545	-0.00180
0.06545	-0.00019
0.06545	0.00077
0.06545	-0.00116
0.06545	0.00077
0.06545	-0.00197
0.06545	-0.00454
0.06545	-0.00035
0.06545	-0.00132
0.06545	-0.00358
0.06545	-0.00180
0.06545	-0.00100
0.06545	-0.00519
0.06545	-0.00132
0.06545	0.00190
0.06545	-0.00052
0.06545	-0.00213
0.06545	-0.00100
0.06545	-0.00132
0.06981	0.00061
0.06981	-0.00148
0.06981	0.00335
0.06981	-0.00229
0.06981	-0.00116
0.06981	0.00061
0.06981	0.00077
0.06981	0.00190
0.06981	-0.00035
0.06981	0.00126
0.06981	0.00206
0.06981	0.00319
0.06981	0.00287
0.06981	0.00093
0.06981	0.00222
0.06981	-0.00068
0.06981	-0.00116
0.06981	0.00190
0.07418	0.00480
0.07418	0.00255
0.07418	0.00432
0.07418	0.00383
0.07418	0.00367
0.07418	0.00335
0.07418	0.00142
0.07418	0.00255
0.07418	0.00351
0.07418	0.00013
0.07418	0.00480
0.07418	0.00367
0.07418	-0.00003
0.07418	0.00287
0.07418	-0.00293
0.07418	0.00351
0.07418	0.00432
0.07418	0.00271
0.07418	-0.00019
0.07418	0.00432
0.07418	0.00351
0.07418	0.00400
0.07418	0.00271
0.07418	0.00351
0.07418	-0.00116
0.07418	0.00013
0.07418	0.00416
0.07854	0.00464
0.07854	0.00110
0.07854	0.00303
0.07854	0.00383
0.07854	0.00528
0.07854	0.00577
0.07854	-0.00035
0.07854	0.00432
0.07854	-0.00003
0.07854	0.00206
0.07854	0.00545
0.07854	0.00673
0.07854	0.00432
0.07854	0.00271
0.07854	0.00480
0.07854	0.00625
0.08290	0.00690
0.08290	0.00480
0.08727	0.00802
0.08727	0.00883
0.08727	0.00190
0.08727	0.00722
0.08727	0.00287
0.08727	0.00464
0.08727	0.00963
0.08727	0.00255
0.08727	0.00657
0.08727	0.00400
0.08727	0.00786
0.08727	0.00706
0.08727	0.00528
0.08727	0.00657
0.08727	0.00496
0.08727	0.00690
0.08727	0.00416
0.08727	0.00271
0.08727	0.00271
0.08727	0.00867
0.09163	0.01028
0.09163	0.00432
0.09163	0.00593
0.09163	0.01044
0.09163	0.00980
0.09163	0.00545
0.09163	0.00416
0.09163	0.00512
0.09163	0.01125
0.09163	0.00883
0.09163	0.01108
0.09163	0.00561
0.09163	0.00480
0.09163	0.00835
0.09163	0.00931
0.09163	-0.00052
0.09163	0.00947
0.09163	0.00963
0.09163	0.01028
0.09163	0.00851
0.09163	0.00480
0.09599	0.01060
0.09599	0.01237
0.09599	0.01318
0.10036	0.01350
0.10036	0.01318
0.10036	0.01302
0.10036	0.00899
0.10036	0.01286
0.10036	0.01318
0.10036	0.01543
0.10036	0.01237
0.10036	0.01221
0.10036	0.01237
0.10036	0.01173
0.10036	0.01044
0.10036	0.01237
0.10036	0.01141
0.10036	0.01270
0.10036	0.00657
0.10036	0.01125
0.10036	0.01318
0.10036	0.01431
0.10036	0.01270
0.10472	0.01721
0.10472	0.01221
0.10472	0.01237
0.10472	0.01141
0.10472	0.01511
0.10472	0.01705
0.10472	0.01592
0.10472	0.01157
0.10472	0.02220
0.10472	0.01511
0.10472	0.01705
0.10472	0.01447
0.10472	0.01656
0.10472	0.01495
0.10472	0.01382
0.10472	0.01640
0.10472	0.01382
0.10472	0.01801
0.10472	0.01221
0.10472	0.01560
0.10472	0.01334
0.10472	0.01060
0.10908	0.01592
0.11345	0.02123
0.11345	0.02140
0.11345	0.01705
0.11345	0.01737
0.11345	0.02397
0.11345	0.02043
0.11345	0.01769
0.11345	0.02188
0.11345	0.01946
0.11345	0.01995
0.11345	0.01640
0.11345	0.02252
0.11345	0.02285
0.11345	0.02172
0.11345	0.02107
0.11345	0.02123
0.11345	0.01930
0.11345	0.02220
0.11345	0.02220
0.11345	0.02236
0.11345	0.01850
0.11345	0.02268
0.11345	0.02317
0.11345	0.02381
0.11345	0.02059
0.11345	0.02059
0.11345	0.02317
0.11345	0.01995
0.11345	0.01850
0.11345	0.02365
0.11345	0.02220
0.11345	0.01898
0.12217	0.02478
0.12654	0.03122
0.12654	0.03171
0.12654	0.02542
0.12654	0.02929
0.12654	0.02800
0.12654	0.03251
0.12654	0.03283
0.12654	0.02800
0.12654	0.03155
0.12654	0.03074
0.12654	0.02494
0.12654	0.02800
0.12654	0.03203
0.12654	0.02542
0.12654	0.02977
0.12654	0.03235
0.12654	0.02655
0.12654	0.03155
0.13090	0.03283
0.13526	0.03735
0.13963	0.03686
0.13963	0.03445
0.13963	0.03638
0.13963	0.03960
0.13963	0.04073
0.13963	0.03976
0.13963	0.03412
0.13963	0.03622
0.13963	0.03283
0.13963	0.03863
0.13963	0.03944
0.13963	0.03702
0.13963	0.03525
0.13963	0.04025
0.13963	0.04008
0.13963	0.04137
0.14399	0.03928
0.14835	0.04186
0.14835	0.04653
0.14835	0.04266
0.14835	0.04701
0.14835	0.04717
0.14835	0.04766
0.14835	0.04443
0.14835	0.04991
0.14835	0.04315
0.14835	0.04605
0.14835	0.04395
0.14835	0.04298
0.14835	0.04653
0.14835	0.04250
0.14835	0.04830
0.14835	0.05249
0.14835	0.04282
0.14835	0.04669
0.14835	0.04862
0.15708	0.05281
0.15708	0.05201
0.15708	0.05378
0.15708	0.05507
0.15708	0.05249
0.15708	0.05104
0.15708	0.05410
0.15708	0.05587
0.16144	0.05732
0.16144	0.05458
0.16144	0.05539
0.16144	0.05426
0.16144	0.05136
0.16144	0.05748
0.16144	0.05201
0.16144	0.05636
0.16144	0.05475
0.16144	0.05507
0.16144	0.05088
0.16581	0.05813
0.16581	0.05732
0.16581	0.06135
0.16581	0.06232
0.16581	0.06280
0.16581	0.06038
0.16581	0.05910
0.16581	0.06103
0.16581	0.06312
0.16581	0.05813
0.16581	0.05942
0.16581	0.05797
0.16581	0.06038
0.16581	0.05700
0.16581	0.06038
0.17453	0.07005
0.17453	0.07070
0.17453	0.07005
0.17453	0.06602
0.17453	0.06908
0.17453	0.06747
0.17453	0.06393
0.17453	0.07166
0.17453	0.07037
0.17453	0.07118
0.17453	0.06892
0.17453	0.07070
0.17453	0.06860
0.17453	0.06490
0.17453	0.06989
0.17453	0.07182
0.17453	0.07037
0.17453	0.06763
0.17453	0.06715
0.17890	0.07263
0.18326	0.07811
0.18326	0.07762
0.18326	0.07569
0.18326	0.07198
0.18326	0.07053
0.18326	0.07279
0.18326	0.07424
0.18326	0.07682
0.18326	0.07601
0.18326	0.07891
0.18326	0.07053
0.18326	0.07537
0.18326	0.07843
0.18326	0.07376
0.18326	0.07118
0.18326	0.07601
0.18326	0.07762
0.18326	0.07360
0.18326	0.07553
0.18326	0.07827
0.18326	0.07569
0.18326	0.07360
0.18326	0.07585
0.18326	0.07247
0.18326	0.07778
0.18326	0.07778
0.18762	0.07633
0.19199	0.08552
0.19199	0.08697
0.19199	0.08101
0.19199	0.08117
0.19199	0.07956
0.19199	0.08552
0.19199	0.08117
0.19199	0.08648
0.19199	0.08600
0.19199	0.08101
0.19199	0.08600
0.19199	0.08648
0.19635	0.09051
0.19635	0.09116
0.19635	0.08826
0.19635	0.08955
0.19635	0.09196
0.19635	0.08777
0.19635	0.08874
0.19635	0.08858
0.19635	0.08439
0.19635	0.08503
0.19635	0.08616
0.19635	0.08987
0.19635	0.08793
0.19635	0.09148
0.19635	0.09035
0.19635	0.08552
0.19635	0.08938
0.19635	0.08842
0.19635	0.09019
0.19635	0.08487
0.19635	0.08536
0.19635	0.08439
0.19635	0.08874
0.19635	0.09148
0.19635	0.09083
0.19635	0.08874
0.19635	0.08955
0.19635	0.09196
0.19635	0.08842
0.19635	0.08471
0.19635	0.08777
0.19635	0.09003
0.19635	0.08423
0.19635	0.09051
0.19635	0.09228
0.19635	0.07778
0.19635	0.08971
0.19635	0.08922
0.19635	0.08858
0.19635	0.09035
0.19635	0.08520
0.20508	0.09518
0.20508	0.09470
0.20508	0.09228
0.20508	0.09196
0.20508	0.09712
0.20508	0.09760
0.20508	0.09712
0.20944	0.09744
0.20944	0.10372
0.20944	0.10034
0.20944	0.10066
0.20944	0.10469
0.20944	0.10082
0.20944	0.10227
0.20944	0.10179
0.20944	0.10098
0.20944	0.10131
0.21380	0.10372
0.21380	0.11017
0.21380	0.10550
0.21380	0.10840
0.21380	0.10872
0.21380	0.10888
0.21380	0.11194
0.21380	0.10646
0.21380	0.10840
0.22253	0.11548
0.22689	0.11645
0.22689	0.12418
0.22689	0.12418
0.22689	0.12306
0.22689	0.12499
0.22689	0.12048
0.22689	0.12354
0.22689	0.12418
0.22689	0.11838
0.22689	0.12290
0.22689	0.12080
0.22689	0.12483
0.22689	0.12354
0.22689	0.11774
0.22689	0.12354
0.22689	0.12080
0.22689	0.11935
0.22689	0.12177
0.22689	0.12467
0.22689	0.11887
0.22689	0.12032
0.22689	0.12451
0.22689	0.11855
0.22689	0.12451
0.22689	0.11919
0.22689	0.12193
0.22689	0.12725
0.22689	0.11903
0.22689	0.12080
0.22689	0.12370
0.22689	0.11822
0.21817	0.11452
0.21817	0.10453
0.21817	0.11081
0.21817	0.11130
0.21817	0.10952
0.21817	0.11033
0.21817	0.10968
0.21817	0.10517
0.21817	0.10920
0.21817	0.11049
0.21817	0.11162
0.21817	0.11065
0.21817	0.10678
0.21817	0.10872
0.21817	0.11339
0.22253	0.11516
0.22689	0.12112
0.23126	0.12644
0.23562	0.12950
0.23998	0.13224
0.24435	0.14094
0.24435	0.14030
0.24435	0.14175
0.24871	0.14175
0.25307	0.15061
0.25307	0.15850
0.25307	0.14738
0.25307	0.15029
0.25307	0.14642
0.25307	0.14996
0.25307	0.14819
0.25307	0.15045
0.25307	0.15109
0.25307	0.15012
0.25307	0.14884
0.25307	0.14755
0.25307	0.14932
0.24871	0.14223
0.24435	0.14481
0.24435	0.14481
0.24435	0.14158
0.24435	0.14239
0.24435	0.14175
0.24435	0.14255
0.24435	0.14642
0.24435	0.14384
0.23998	0.13143
0.23562	0.12612
0.23562	0.12725
0.23562	0.12257
0.23126	0.12676
0.23126	0.12870
0.23126	0.12547
0.23126	0.12354
0.23126	0.12338
0.23126	0.12644
0.23126	0.13063
0.23126	0.12402
0.23126	0.12531
0.23126	0.12515
0.23126	0.12483
0.23126	0.12515
0.23126	0.12531
0.23126	0.13095
0.23562	0.12402
0.23562	0.13160
0.23562	0.12757
0.23998	0.13208
0.24435	0.14013
0.24435	0.14191
0.24435	0.14577
0.24435	0.14336
0.24871	0.14916
0.25307	0.14851
0.25307	0.15270
0.25307	0.14900
0.25307	0.15464
0.25307	0.15238
0.25744	0.15995
0.26180	0.16156
0.26616	0.16672
0.26616	0.16752
0.26616	0.16704
0.26616	0.16865
0.26616	0.16865
0.26616	0.16736
0.26616	0.16769
0.26616	0.16946
0.26616	0.16285
0.26616	0.16914
0.26616	0.16398
0.26616	0.16736
0.26616	0.16736
0.26616	0.16881
0.26616	0.16285
0.26616	0.16914
0.26616	0.16334
0.26616	0.16736
0.26616	0.16060
0.26616	0.16914
0.26616	0.15673
0.26616	0.16769
0.26616	0.16430
0.26616	0.16640
0.26616	0.16124
0.26616	0.16624
0.26616	0.16398
0.26616	0.15947
0.26616	0.16285
0.26616	0.16704
0.26616	0.16430
0.26616	0.16446
0.26616	0.16704
0.26616	0.16688
0.26616	0.16607
0.26616	0.16334
0.26616	0.16688
0.26616	0.16930
0.26616	0.16640
0.26616	0.16817
0.26616	0.16172
0.26616	0.16446
0.26616	0.16817
0.26616	0.16366
0.26616	0.16785
0.26616	0.16366
0.26616	0.16720
0.26616	0.16672
0.26616	0.16720
0.26616	0.16575
0.26616	0.16430
0.26616	0.16317
0.26616	0.16688
0.26616	0.16398
0.26616	0.16897
0.26616	0.16479
0.26616	0.16817
0.26616	0.16833
0.26616	0.16591
0.26616	0.16865
0.26616	0.16205
0.26616	0.16930
0.26616	0.16527
0.26616	0.16833
0.26616	0.16575
0.26616	0.16865
0.26616	0.16575
0.26616	0.17139
0.26616	0.17010
0.26616	0.16946
0.26616	0.16624
0.26616	0.16865
0.26616	0.16511
0.26616	0.16930
0.26616	0.16962
0.26616	0.17268
0.26616	0.16978
0.26616	0.17107
0.26616	0.17059
0.26616	0.17735
0.26616	0.16833
0.26616	0.17413
0.26616	0.17107
0.26616	0.16897
0.26616	0.17429
0.26616	0.16881
0.27489	0.18364
0.27489	0.18331
0.27489	0.17961
0.27489	0.17929
0.27489	0.18315
0.27489	0.18492
0.27489	0.17735
0.27489	0.18573
0.27489	0.18235
0.27489	0.18267
0.27489	0.18444
0.27489	0.18347
0.27489	0.18331
0.27489	0.18074
0.27489	0.18492
0.27489	0.18444
0.27925	0.18315
0.27925	0.18380
0.27925	0.18347
0.27925	0.18025
0.27925	0.18154
0.27925	0.18154
0.27925	0.18202
0.27925	0.18428
0.27925	0.17864
0.27925	0.18041
0.27925	0.17784
0.29234	0.19652
0.29234	0.20039
0.29234	0.19588
0.29234	0.19524
0.29234	0.19346
0.29234	0.19797
0.29234	0.19266
0.29234	0.19862
0.29234	0.19346
0.29234	0.19733
0.29234	0.19443
0.29234	0.19894
0.29234	0.19604
0.29234	0.19669
0.29234	0.19862
0.29234	0.19395
0.29234	0.19588
0.29234	0.20120
0.29234	0.19685
0.29234	0.19475
0.29234	0.19733
0.28798	0.19362
0.28362	0.18315
0.28362	0.18090
0.28362	0.18541
0.28362	0.18025
0.28362	0.18235
0.28362	0.18138
0.28362	0.18122
0.28362	0.18492
0.28362	0.18170
0.28362	0.18412
0.28362	0.18009
0.28362	0.18750
0.28362	0.18686
0.29234	0.20087
0.29671	0.20732
0.29671	0.21006
0.29671	0.20522
0.29671	0.20909
0.29671	0.20281
0.29671	0.20893
0.29671	0.20812
0.29671	0.20861
0.29671	0.20812
0.29671	0.20651
0.29671	0.20619
0.29671	0.20458
0.29671	0.20458
0.29671	0.20925
0.29671	0.20861
0.29671	0.20394
0.29671	0.20829
0.29671	0.20893
0.29671	0.20796
0.29671	0.20941
0.29671	0.20796
0.29671	0.20345
0.29671	0.21344
0.29671	0.20555
0.29671	0.20780
0.29671	0.20845
0.30543	0.21537
0.30980	0.22472
0.30980	0.22552
0.30980	0.21972
0.30980	0.22585
0.30980	0.22407
0.30980	0.22456
0.30980	0.22391
0.30980	0.22311
0.30980	0.22585
0.30980	0.21860
0.30980	0.22585
0.30980	0.22005
0.30980	0.21956
0.30980	0.22504
0.30980	0.22101
0.30980	0.22520
0.30980	0.22375
0.30980	0.22246
0.31852	0.23374
0.31852	0.23084
0.31852	0.23213
0.31852	0.23857
0.31852	0.22794
0.31852	0.23294
0.31852	0.23149
0.31852	0.23132
0.31852	0.23310
0.31852	0.22714
0.31852	0.23020
0.31852	0.23149
0.31852	0.22859
0.31852	0.23487
0.31852	0.23165
0.31852	0.22939
0.31852	0.23036
0.31852	0.22923
0.32725	0.24454
0.33161	0.24921
0.33161	0.24953
0.33161	0.25082
0.33161	0.24985
0.33161	0.25243
0.33161	0.25372
0.33161	0.24760
0.33161	0.25195
0.33161	0.24840
0.33161	0.25291
0.33161	0.24872
0.33161	0.25420
0.33161	0.25420
0.33161	0.25372
0.33161	0.24663
0.33161	0.25291
0.33161	0.25227
0.33161	0.25227
0.33161	0.25146
0.33161	0.25356
0.33161	0.25597
0.33161	0.25066
0.33161	0.25469
0.33161	0.25195
0.33161	0.25372
0.33161	0.25469
0.33161	0.25517
0.33161	0.25162
0.33161	0.25452
0.33161	0.25485
0.33161	0.25404
0.33598	0.26355
0.33598	0.26097
0.33598	0.26306
0.33598	0.26500
0.33598	0.26194
0.33598	0.26322
0.33598	0.26177
0.34470	0.27015
0.34470	0.27370
0.34470	0.26838
0.34470	0.27402
0.34470	0.26854
0.34470	0.27047
0.34470	0.26806
0.34470	0.26967
0.34470	0.27064
0.34470	0.27064
0.34470	0.27080
0.34470	0.27031
0.34470	0.27466
0.34470	0.26886
0.34470	0.27209
0.34470	0.27402
0.34470	0.26854
0.34470	0.27176
0.34470	0.26886
0.34470	0.27241
0.34470	0.26757
0.34470	0.27192
0.34470	0.27450
0.34470	0.27015
0.34470	0.27450
0.34470	0.27080
0.34470	0.27225
0.34470	0.27321
0.34470	0.26596
0.34470	0.27209
0.34470	0.27321
0.34470	0.26838
0.34470	0.27354
0.34470	0.27176
0.34470	0.27241
0.34470	0.27386
0.34470	0.27386
0.34470	0.26967
0.34470	0.27160
0.34470	0.26999
0.34470	0.27370
0.35343	0.28352
0.35343	0.28578
0.35343	0.28111
0.35343	0.28610
0.35343	0.28530
0.35343	0.28530
0.35343	0.29126
0.35343	0.28675
0.35343	0.28336
0.35343	0.28111
0.35343	0.28095
0.35343	0.28610
0.35343	0.28739
0.36216	0.29094
0.36216	0.30125
0.36652	0.29867
0.36652	0.29883
0.36652	0.29835
0.36652	0.30286
0.36652	0.30044
0.36652	0.30076
0.36652	0.30221
0.36652	0.30189
0.36652	0.30141
0.36652	0.30270
0.36652	0.29915
0.36652	0.30254
0.36652	0.30221
0.36652	0.30173
0.37088	0.30769
0.37088	0.31220
0.37088	0.30817
0.37088	0.31269
0.37088	0.30656
0.37088	0.30995
0.37088	0.31027
0.37525	0.32090
0.37525	0.32106
0.37525	0.31655
0.37525	0.31977
0.37525	0.31768
0.37525	0.31961
0.37525	0.32187
0.37525	0.31784
0.37525	0.32010
0.37525	0.31671
0.37525	0.31752
0.37525	0.31478
0.37525	0.31575
0.37525	0.31655
0.37525	0.31542
0.37961	0.32203
0.37961	0.31977
0.37961	0.31752
0.37961	0.31897
0.37961	0.31961
0.37961	0.32155
0.37961	0.32139
0.37961	0.32090
0.37961	0.32187
0.37961	0.32010
0.37961	0.32139
0.37961	0.32058
0.37961	0.32187
0.37961	0.31430
0.37961	0.32139
0.37961	0.32042
0.37961	0.31961
0.38834	0.33476
0.38834	0.33073
0.38834	0.33282
0.38834	0.33476
0.38834	0.33299
0.38834	0.33170
0.38834	0.33105
0.38834	0.33282
0.38834	0.33556
0.38834	0.33025
0.38834	0.33347
0.39706	0.34007
0.40143	0.35119
0.40143	0.35457
0.40143	0.34910
0.40143	0.35022
0.40143	0.35329
0.40143	0.34877
0.40143	0.35538
0.40143	0.34942
0.40143	0.34829
0.40143	0.35361
0.40143	0.35312
0.40143	0.35296
0.40143	0.35119
0.40143	0.35457
0.40143	0.35167
0.40143	0.35361
0.40579	0.36489
0.41015	0.36489
0.41015	0.36408
0.41015	0.36472
0.41015	0.36215
0.41015	0.36456
0.41015	0.36215
0.41015	0.35812
0.41015	0.36344
0.41015	0.36231
0.41015	0.36279
0.41015	0.36376
0.41015	0.36327
0.41015	0.36182
0.41015	0.36247
0.41015	0.36021
0.41015	0.36037
0.41452	0.37214
0.41888	0.38325
0.42324	0.38261
0.42324	0.37777
0.42324	0.37777
0.42324	0.38180
0.42324	0.37874
0.42324	0.38180
0.42324	0.37858
0.42324	0.38245
0.42324	0.37955
0.42324	0.37729
0.42324	0.37874
0.42324	0.38084
0.42324	0.37810
0.42324	0.38019
0.42324	0.38245
0.42324	0.37858
0.42324	0.38084
0.42761	0.39566
0.42761	0.39147
0.42761	0.39260
0.42761	0.39485
0.42761	0.39389
0.42761	0.39066
0.42761	0.39485
0.42761	0.38921
0.42761	0.39002
0.42761	0.38921
0.42761	0.39131
0.43633	0.40243
0.43633	0.40307
0.43633	0.40130
0.43633	0.39953
0.43633	0.39953
0.43633	0.39469
0.43633	0.39518
0.43633	0.40291
0.43633	0.40226
0.43633	0.40339
0.43633	0.40259
0.43633	0.40194
0.43633	0.40033
0.43633	0.40323
0.43633	0.40081
0.43633	0.40500
0.43633	0.40033
0.43633	0.40420
0.43633	0.40371
0.43633	0.40130
0.43633	0.39743
0.43633	0.40162
0.43633	0.40388
0.43633	0.40516
0.43633	0.40226
0.43633	0.39888
0.43633	0.40339
0.43633	0.40017
0.43633	0.40661
0.43633	0.40420
0.43633	0.40355
0.43633	0.39743
0.43633	0.40388
0.43633	0.40065
0.43633	0.40081
0.43633	0.40033
0.43633	0.40098
0.43633	0.40339
0.43633	0.39936
0.43633	0.40388
0.43633	0.40339
0.43633	0.40436
0.43633	0.40452
0.43633	0.40581
0.43633	0.40436
0.43633	0.40404
0.43633	0.40259
0.43633	0.39856
0.43633	0.40355
0.43633	0.40339
0.43633	0.40065
0.43633	0.40226
0.43633	0.40130
0.43633	0.39663
0.43633	0.39904
0.44942	0.41129
0.44942	0.41870
0.44942	0.41966
0.44942	0.41354
0.44942	0.41886
0.44942	0.42063
0.44942	0.42079
0.44942	0.42047
0.44942	0.41950
0.44942	0.41983
0.44942	0.41886
0.44942	0.41258
0.44942	0.41854
0.44942	0.41241
0.44942	0.41693
0.44942	0.41709
0.44942	0.41838
0.44942	0.41628
0.45379	0.42305
0.45379	0.42724
0.45379	0.42595
0.45379	0.42482
0.45379	0.42691
0.45379	0.42836
0.45379	0.42514
0.45379	0.42675
0.45379	0.42643
0.45379	0.42385
0.45379	0.42627
0.45379	0.42047
0.45379	0.42111
0.45379	0.42095
0.45379	0.42144
0.45379	0.42627
0.45379	0.42321
0.46251	0.43964
0.46688	0.44528
0.46688	0.44093
0.46688	0.44560
0.46688	0.44190
0.46688	0.44351
0.46688	0.44528
0.46688	0.44496
0.46688	0.44286
0.46688	0.44222
0.46688	0.44254
0.46688	0.44045
0.46688	0.44286
0.46688	0.44351
0.46688	0.43674
0.46688	0.44158
0.47124	0.45253
0.47997	0.46059
0.47997	0.46542
0.47997	0.46333
0.47997	0.46365
0.47997	0.46091
0.47997	0.46349
0.47997	0.46510
0.47997	0.46558
0.47997	0.46445
0.47997	0.46639
0.47997	0.46429
0.47997	0.46494
0.47997	0.46510
0.47997	0.46349
0.47997	0.46220
0.47997	0.45946
0.47997	0.46574
0.47997	0.46639
0.48869	0.47170
0.49306	0.48105
0.49306	0.47589
0.49306	0.48105
0.49306	0.47863
0.49306	0.47766
0.49306	0.47718
0.49306	0.47863
0.49306	0.47815
0.49306	0.48105
0.49306	0.47734
0.49306	0.47992
0.49306	0.47879
0.49306	0.47541
0.49306	0.47541
0.49306	0.47960
0.49306	0.47847
0.49306	0.47895
0.49306	0.47396
0.49306	0.48024
0.49742	0.49023
0.49742	0.48862
0.49742	0.48717
0.49742	0.48282
0.49742	0.48798
0.49742	0.48653
0.49742	0.48814
0.49742	0.48959
0.49742	0.49071
0.49742	0.48862
0.49742	0.48959
0.49742	0.48636
0.49742	0.48701
0.50615	0.49378
0.51487	0.50666
0.52360	0.51101
0.52360	0.51295
0.52360	0.52374
0.52360	0.51939
0.52360	0.51843
0.52360	0.51746
0.52360	0.51988
0.52360	0.51553
0.52360	0.51826
0.52360	0.51665
0.52360	0.51520
0.52360	0.51504
0.52360	0.51875
0.52360	0.51988
0.52360	0.51617
0.52360	0.52004
0.52360	0.51327
0.52360	0.51810
0.52360	0.51891
0.52360	0.51472
0.50615	0.49635
0.50178	0.48862
0.50178	0.49055
0.50178	0.49088
0.50178	0.48798
0.50178	0.48959
0.50178	0.48910
0.50178	0.48781
0.50178	0.49104
0.50178	0.48556
0.50178	0.49039
0.50178	0.48540
0.50178	0.48975
0.50178	0.49184
0.50178	0.48669
0.50178	0.48733
0.50178	0.48798
0.51051	0.49990
0.51924	0.51504
0.51924	0.51553
0.51924	0.51762
0.51924	0.51569
0.52360	0.51939
0.52360	0.51843
0.52360	0.51488
0.52360	0.51279
0.52360	0.51891
0.52360	0.52052
0.52360	0.51488
0.53233	0.52825
0.53669	0.53776
0.54105	0.53711
0.54105	0.54195
0.54105	0.54163
0.54105	0.54275
0.54105	0.53921
0.54105	0.54066
0.54105	0.54259
0.54105	0.54114
0.54105	0.54114
0.54105	0.54404
0.54105	0.53889
0.54105	0.54018
0.54105	0.53969
0.54105	0.54163
0.54105	0.53985
0.55414	0.55661
0.56287	0.56934
0.56287	0.57369
0.56287	0.56805
0.56287	0.56724
0.56287	0.57175
0.56287	0.56773
0.56287	0.57079
0.56287	0.57256
0.56287	0.56789
0.56287	0.56901
0.56287	0.57014
0.56287	0.56934
0.56287	0.56998
0.56287	0.57191
0.56287	0.56563
0.56287	0.56708
0.56287	0.56789
0.56287	0.57079
0.56287	0.56434
0.56287	0.56789
0.56287	0.56966
0.56287	0.56531
0.56287	0.56724
0.56287	0.57014
0.56287	0.56805
0.56287	0.56628
0.56287	0.56531
0.56287	0.57046
0.56287	0.56740
0.56287	0.56692
0.56287	0.56901
0.56287	0.57256
0.56287	0.56934
0.56287	0.56805
0.56287	0.57143
0.56287	0.57208
0.56287	0.57127
0.56287	0.56724
0.56287	0.57063
0.56287	0.57272
0.56287	0.57320
0.56287	0.57208
0.56287	0.57014
0.57160	0.57755
0.57596	0.58561
0.58032	0.59318
0.58032	0.58931
0.58032	0.58867
0.58032	0.59254
0.58032	0.59109
0.58032	0.58948
0.58032	0.59399
0.58032	0.58835
0.58032	0.59125
0.58032	0.59334
0.58032	0.59254
0.58032	0.58931
0.58032	0.59044
0.58032	0.58674
0.58032	0.59060
0.58032	0.59254
0.59341	0.59834
0.59778	0.60655
0.59778	0.60800
0.59778	0.60478
0.59778	0.60607
0.59778	0.60172
0.59778	0.60736
0.59778	0.60623
0.59778	0.60671
0.59778	0.60188
0.59778	0.60736
0.59778	0.60526
0.59778	0.60591
0.59778	0.60913
0.59778	0.60398
0.59778	0.60510
0.59778	0.60897
0.59778	0.60543
0.59778	0.60736
0.59778	0.60430
0.59778	0.60269
0.59778	0.60800
0.60214	0.61106
0.60214	0.61509
0.60214	0.60961
0.60214	0.61332
0.60214	0.60526
0.60214	0.61332
0.60214	0.61090
0.60214	0.61509
0.60214	0.61251
0.61087	0.61799
0.61523	0.62154
0.61959	0.63201
0.61959	0.63265
0.61959	0.62702
0.61959	0.62927
0.61959	0.63056
0.61959	0.62621
0.61959	0.62637
0.61959	0.63137
0.61959	0.63249
0.61959	0.62444
0.61959	0.62653
0.61959	0.63169
0.61959	0.62798
0.61959	0.63153
0.61959	0.62847
0.62832	0.63878
0.63268	0.64264
0.63268	0.64055
0.63268	0.63990
0.63268	0.64474
0.63268	0.63829
0.63268	0.64232
0.63268	0.64474
0.63268	0.63894
0.63268	0.64377
0.63268	0.64490
0.63268	0.64023
0.63705	0.64135
0.63705	0.64651
0.63705	0.64570
0.63705	0.63926
0.63705	0.63958
0.63705	0.64216
0.63705	0.64409
0.63705	0.64103
0.63705	0.64361
0.63705	0.64264
0.63705	0.64635
0.63705	0.63845
0.63705	0.64442
0.63705	0.64087
0.63705	0.64442
0.64577	0.64989
0.65450	0.65747
0.65886	0.66278
0.65886	0.65859
0.65886	0.66020
0.65886	0.66262
0.65886	0.65811
0.65886	0.66165
0.65886	0.65714
0.65886	0.66149
0.65886	0.66198
0.65886	0.66165
0.65886	0.65440
0.65886	0.66069
0.65886	0.65763
0.66759	0.67019
0.67632	0.66907
0.67632	0.67583
0.67632	0.67470
0.67632	0.67728
0.67632	0.67599
0.67632	0.67728
0.67632	0.67728
0.67632	0.67100
0.67632	0.67696
0.67632	0.67535
0.67632	0.67648
0.67632	0.67728
0.67632	0.67487
0.67632	0.67293
0.67632	0.67760
0.67632	0.67599
0.67632	0.67358
0.67632	0.67760
0.67632	0.67503
0.67632	0.67583
0.68941	0.67680
0.68504	0.68067
0.68504	0.68276
0.68504	0.67905
0.68504	0.67938
0.68941	0.68276
0.68941	0.68147
0.68941	0.67970
0.69813	0.68743
0.70250	0.69114
0.70250	0.69049
0.70250	0.68888
0.70250	0.68969
0.70250	0.69017
0.70250	0.69033
0.70250	0.68920
0.70250	0.68695
0.70250	0.69227
0.70250	0.69162
0.70250	0.69227
0.70250	0.68888
0.71122	0.69420
0.71558	0.69968
0.71558	0.69484
0.71558	0.69726
0.71558	0.69790
0.71558	0.69533
0.71558	0.69758
0.71558	0.69887
0.71558	0.69581
0.71558	0.70032
0.71558	0.70048
0.71558	0.69645
0.71558	0.69871
0.71558	0.69742
0.71558	0.69355
0.71558	0.69903
0.71558	0.69984
0.71558	0.69694
0.71558	0.69855
0.71558	0.70177
0.71558	0.69984
0.71558	0.70113
0.71558	0.69581
0.72431	0.70193
0.73304	0.70741
0.73740	0.70548
0.73740	0.70596
0.73740	0.70612
0.73740	0.70838
0.73740	0.70209
0.73740	0.70757
0.73740	0.70709
0.73740	0.70242
0.73740	0.70789
0.73740	0.70419
0.73740	0.70983
0.73740	0.70628
0.73740	0.70934
0.73740	0.70419
0.73740	0.70467
0.73740	0.70677
0.73740	0.70870
0.73740	0.70290
0.73740	0.70757
0.73740	0.70822
0.73740	0.70370
0.73740	0.70209
0.73740	0.71289
0.73740	0.71144
0.73740	0.70950
0.73740	0.70967
0.73740	0.71128
0.73740	0.71079
0.73740	0.71144
0.73740	0.71031
0.75049	0.71385
0.76794	0.71611
0.78103	0.71885
0.78103	0.71530
0.78103	0.71837
0.78103	0.72078
0.78103	0.71402
0.78103	0.71450
0.78103	0.71933
0.78103	0.71804
0.78103	0.71498
0.78103	0.71692
0.78103	0.72175
0.78103	0.71692
0.78103	0.72014
0.78103	0.71869
0.78103	0.71804
0.78103	0.72062
0.78103	0.72062
0.77667	0.71627
0.76358	0.71643
0.75485	0.70934
0.75485	0.71482
0.75485	0.71369
0.75485	0.70805
0.75485	0.71498
0.75485	0.71337
0.75485	0.71402
0.75485	0.71128
0.75485	0.71369
0.75485	0.71160
0.75485	0.71095
0.75485	0.71289
0.75485	0.71385
0.75922	0.71402
0.75922	0.71240
0.75922	0.71192
0.77231	0.71176
0.77667	0.71257
0.77667	0.71643
0.77667	0.71595
0.77667	0.71402
0.77667	0.71547
0.77667	0.71708
0.77667	0.71273
0.77667	0.71643
0.77667	0.71820
0.77667	0.71466
0.77667	0.71627
0.77667	0.71756
0.77667	0.71547
0.77667	0.71434
0.77667	0.71482
0.77667	0.71273
0.77667	0.71466
0.79412	0.72030
0.80721	0.71788
0.81158	0.72062
0.81158	0.71933
0.81158	0.71820
0.81158	0.72110
0.81158	0.71837
0.81158	0.72223
0.81158	0.71982
0.81158	0.71885
0.81158	0.72255
0.81158	0.71692
0.81158	0.71885
0.81158	0.71853
0.80721	0.71643
0.80721	0.71965
0.80721	0.71837
0.80721	0.72030
0.80721	0.71321
0.80721	0.71949
0.80721	0.71692
0.80721	0.71837
0.80721	0.71965
0.80721	0.72030
0.80721	0.71772
0.80721	0.71949
0.80721	0.72030
0.80721	0.72062
0.81158	0.72110
0.81158	0.72207
0.81158	0.71530
0.81158	0.71772
0.81158	0.71402
0.81158	0.72159
0.81158	0.71837
0.82467	0.71724
0.83339	0.71402
0.83339	0.71450
0.83339	0.71240
0.83339	0.71563
0.83339	0.71740
0.83339	0.71724
0.83339	0.71659
0.83339	0.71659
0.83339	0.71853
0.83339	0.71595
0.83339	0.71820
0.83339	0.71804
0.83339	0.71692
0.83339	0.72094
0.83339	0.71917
0.83339	0.72030
0.83339	0.71965
0.83339	0.71772
0.83339	0.72674
0.83339	0.72127
0.83339	0.71982
0.83339	0.72062
0.83339	0.71982
0.83339	0.71514
0.83339	0.71949
0.83339	0.71563
0.83339	0.71820
0.83339	0.71917
0.83339	0.72159
0.83339	0.71917
0.83339	0.71498
0.83339	0.71627
0.83339	0.72062
0.83339	0.71643
0.83339	0.71708
0.83339	0.72304
0.83339	0.71708
0.83339	0.72014
0.83339	0.71530
0.83339	0.72078
0.83339	0.72078
0.83339	0.71659
0.83339	0.71772
0.83339	0.71965
0.83339	0.71547
0.83339	0.71675
0.83339	0.72030
0.83339	0.71450
0.83339	0.71917
0.83339	0.72175
0.83339	0.72755
0.83339	0.73351
0.83339	0.73496
0.83339	0.73432
0.83339	0.73544
0.83339	0.73174
0.83339	0.72948
0.83339	0.72980
0.83339	0.73609
0.83776	0.73657
0.83776	0.73609
0.83776	0.73254
0.83776	0.73641
0.83776	0.73786
0.83776	0.73061
0.83776	0.73303
0.83776	0.73689
0.84212	0.73351
0.84648	0.73303
0.85521	0.73045
0.85521	0.73383
0.85521	0.73222
0.85521	0.73206
0.85521	0.72980
0.85521	0.73287
0.85521	0.72739
0.85521	0.72932
0.85521	0.73303
0.85521	0.73174
0.85521	0.73142
0.85521	0.73335
0.86394	0.72997
0.86394	0.73158
0.86830	0.72320
0.86830	0.72787
0.86830	0.72980
0.86830	0.72545
0.86830	0.72900
0.87266	0.72384
0.87266	0.72562
0.87703	0.72320
0.87703	0.72400
0.87703	0.72304
0.87703	0.72320
0.87703	0.72368
0.87703	0.72046
0.88139	0.71949
0.88139	0.71756
0.88139	0.72223
0.88139	0.72110
0.88139	0.72239
0.88575	0.71917
0.89012	0.71563
0.89012	0.71176
0.89012	0.71563
0.89012	0.71031
0.89012	0.71289
0.89012	0.71369
0.89012	0.71385
0.89012	0.71466
0.89012	0.71321
0.89448	0.71176
0.89884	0.71095
0.89884	0.70902
0.89884	0.70918
0.89884	0.70741
0.89884	0.71031
0.89884	0.70983
0.89884	0.70983
0.90321	0.70258
0.90321	0.70483
0.90321	0.70145
0.90321	0.70322
0.90321	0.71321
0.90321	0.70870
0.90321	0.71144
0.90321	0.70451
0.90321	0.70902
0.91193	0.70225
0.91630	0.70177
0.91630	0.70129
0.91630	0.69468
0.91630	0.69839
0.91630	0.69790
0.91630	0.69984
0.91630	0.70000
0.91630	0.70032
0.92066	0.69420
0.92066	0.69839
0.92502	0.69581
0.92502	0.69017
0.92502	0.69645
0.92502	0.69581
0.92502	0.68969
0.92502	0.69275
0.92939	0.69243
0.93375	0.68743
0.93375	0.68840
0.93375	0.68856
0.93375	0.68502
0.93375	0.68614
0.93811	0.68663
0.94248	0.68067
0.94248	0.68034
0.94248	0.68083
0.94248	0.67889
0.94684	0.67793
0.95120	0.67148
0.95120	0.67309
0.95120	0.66939
0.95120	0.67100
0.95120	0.67180
0.95557	0.66617
0.95993	0.66343
0.96429	0.65714
0.96429	0.66327
0.96429	0.66439
0.96429	0.65811
0.96429	0.66391
0.96429	0.66310
0.96429	0.66133
0.96429	0.65795
0.96429	0.66198
0.97302	0.65247
0.97738	0.64909
0.97738	0.64023
0.97738	0.64361
0.97738	0.64522
0.97738	0.65054
0.97738	0.65102
0.98175	0.63958
0.98611	0.63845
0.99047	0.63717
0.99047	0.63974
0.99047	0.63717
0.99047	0.63684
0.99047	0.63282
0.99047	0.63878
0.99484	0.63410
0.99484	0.62814
0.99484	0.62685
0.99484	0.62975
0.99484	0.63233
0.99484	0.62959
1.00356	0.62186
1.00356	0.62057
1.00356	0.62218
1.00356	0.62138
1.00793	0.61993
1.00793	0.61461
1.01229	0.60043
1.01665	0.60752
1.01665	0.61010
1.01665	0.60430
1.02102	0.60446
1.02102	0.60156
1.02102	0.59995
1.02102	0.59801
1.02102	0.59447
1.02102	0.59463
1.02102	0.59882
1.02538	0.59270
1.02538	0.59012
1.02538	0.59286
1.02538	0.59511
1.02538	0.59060
1.02538	0.59125
1.02538	0.59334
1.03411	0.58625
1.03411	0.57949
1.03411	0.58432
1.03411	0.58045
1.03847	0.57900
1.03847	0.57820
1.03847	0.57916
1.04283	0.57562
1.04720	0.57079
1.04720	0.57063
1.04720	0.56644
1.04720	0.56515
1.04720	0.56531
1.04720	0.56241
1.04720	0.56644
1.05156	0.55709
1.05156	0.56080
1.05592	0.55355
1.05592	0.55129
1.05592	0.55564
1.06029	0.55274
1.06465	0.54581
1.06465	0.54743
1.06465	0.54646
1.06465	0.54485
1.07338	0.54614
1.07774	0.53196
1.07774	0.52487
1.07774	0.52568
1.07774	0.53019
1.07774	0.52696
1.07774	0.52535
1.07774	0.52874
1.07774	0.52245
1.07774	0.52503
1.08210	0.51843
1.08647	0.52213
1.09083	0.50940
1.09519	0.50457
1.09519	0.50795
1.09519	0.50602
1.09519	0.50634
1.09519	0.50344
1.09519	0.50328
1.09519	0.50521
1.09519	0.50586
1.09956	0.50296
1.09956	0.49490
1.09956	0.49571
1.09956	0.49893
1.09956	0.49587
1.09956	0.50151
1.09956	0.49796
1.09956	0.49861
1.09956	0.49877
1.09956	0.49909
1.10828	0.49120
1.10828	0.48266
1.10828	0.48459
1.10828	0.48475
1.10828	0.48701
1.10828	0.48894
1.10828	0.48282
1.11701	0.47589
1.12137	0.46977
1.12137	0.47251
1.12137	0.47412
1.12137	0.47460
1.12137	0.47315
1.12137	0.47315
1.12137	0.46703
1.12137	0.46896
1.12137	0.46848
1.12137	0.46896
1.12137	0.46816
1.12574	0.46800
1.12574	0.45881
1.12574	0.46558
1.13010	0.45591
1.13446	0.45463
1.13446	0.45253
1.13446	0.45237
1.13446	0.45044
1.13883	0.44593
1.14319	0.44093
1.14319	0.43529
1.14319	0.43868
1.14319	0.43368
1.14755	0.43223
1.15192	0.43014
1.15192	0.42901
1.15192	0.42385
1.15192	0.42498
1.15192	0.42611
1.15628	0.42192
1.16064	0.41016
1.16501	0.40903
1.16501	0.40968
1.16501	0.40790
1.16501	0.40629
1.16501	0.40855
1.16501	0.40597
1.16501	0.40839
1.16501	0.40307
1.16501	0.41000
1.16937	0.40259
1.17373	0.39099
1.17373	0.39518
1.17373	0.39228
1.17373	0.39018
1.17810	0.38245
1.17810	0.38664
1.17810	0.38712
1.17810	0.38229
1.18246	0.38229
1.18682	0.37439
1.19119	0.36714
1.19119	0.36489
1.19119	0.36360
1.19555	0.36102
1.19991	0.35715
1.20428	0.34990
1.20428	0.34539
1.20428	0.35087
1.20428	0.34716
1.20428	0.34410
1.20864	0.34233
1.21300	0.33234
1.21737	0.32992
1.21737	0.32348
1.21737	0.32606
1.21737	0.32815
1.21737	0.32944
1.21737	0.32622
1.21737	0.32767
1.21737	0.32396
1.21737	0.32719
1.21737	0.32364
1.21737	0.32735
1.21737	0.32686
1.21737	0.32477
1.21737	0.32719
1.21737	0.32557
1.21737	0.32300
1.21737	0.32509
1.21737	0.32541
1.21737	0.32847
1.21737	0.32912
1.21737	0.32332
1.21737	0.32702
1.22609	0.31510
1.23046	0.30898
1.23046	0.30930
1.23046	0.31220
1.23046	0.30576
1.23046	0.31091
1.23046	0.31043
1.23482	0.30109
1.24355	0.29190
1.24355	0.29480
1.24355	0.28932
1.24355	0.29416
1.24355	0.29496
1.24355	0.29529
1.24355	0.29190
1.24791	0.27627
1.24791	0.28256
1.24791	0.28095
1.24791	0.27885
1.24791	0.28207
1.24791	0.27789
1.25664	0.27692
1.26100	0.26322
1.26536	0.25936
1.26536	0.25904
1.26536	0.26145
1.26536	0.25952
1.26536	0.26097
1.26536	0.26081
1.26973	0.25114
1.26973	0.25372
1.26973	0.25066
1.26973	0.25275
1.26973	0.25227
1.27409	0.24856
1.27845	0.24019
1.27845	0.24051
1.28282	0.23487
1.28718	0.22810
1.28718	0.22391
1.28718	0.22601
1.28718	0.22681
1.29154	0.22134
1.29591	0.21280
1.30027	0.20748
1.30027	0.20877
1.30027	0.21183
1.30027	0.21022
1.30027	0.20829
1.30027	0.20603
1.30463	0.20039
1.30463	0.19926
1.30900	0.20120
1.30900	0.19926
1.30900	0.19975
1.31336	0.19266
1.31336	0.19137
1.31336	0.19121
1.31336	0.19250
1.31772	0.18573
1.32209	0.19008
1.32209	0.18041
1.32645	0.17220
1.32645	0.17107
1.32645	0.17268
1.32645	0.17252
1.32645	0.16752
1.32645	0.17220
1.33081	0.16865
1.33081	0.16752
1.33081	0.16543
1.33081	0.16704
1.33081	0.16736
1.33081	0.16672
1.33954	0.15899
1.34390	0.15190
1.34390	0.15029
1.34390	0.15560
1.34390	0.15335
1.34827	0.14964
1.35263	0.14142
1.35263	0.14239
1.35263	0.14561
1.35263	0.14400
1.35263	0.14545
1.35699	0.13885
1.35699	0.13852
1.36136	0.12918
1.36136	0.13160
1.36136	0.13482
1.36136	0.13111
1.36136	0.13433
1.36572	0.12660
1.36572	0.12725
1.36572	0.12370
1.36572	0.12354
1.36572	0.12708
1.36572	0.12982
1.36572	0.12837
1.36572	0.12547
1.37008	0.11806
1.37881	0.11565
1.37881	0.11452
1.37881	0.11242
1.37881	0.11468
1.37881	0.10952
1.37881	0.11178
1.37881	0.10872
1.38317	0.10437
1.38754	0.10082
1.39190	0.10147
1.39190	0.09953
1.39190	0.09728
1.39190	0.08600
1.39190	0.09631
1.39190	0.09728
1.39626	0.09663
1.39626	0.09470
1.39626	0.09164
1.39626	0.08681
1.39626	0.09164
1.40063	0.08262
1.40063	0.08358
1.40063	0.08536
1.40063	0.08294
1.40063	0.08761
1.40935	0.08294
1.41372	0.07633
1.41372	0.07875
1.41372	0.07730
1.41808	0.07118
1.41808	0.07505
1.41808	0.06957
1.41808	0.07215
1.41808	0.07134
1.41808	0.07102
1.42681	0.06699
1.43117	0.05781
1.43117	0.05990
1.43117	0.05829
1.43117	0.06377
1.43553	0.05910
1.43553	0.05684
1.43553	0.05185
1.43990	0.05201
1.43990	0.05201
1.43990	0.05023
1.43990	0.04798
1.43990	0.04895
1.43990	0.05249
1.44862	0.04750
1.45299	0.04637
1.45299	0.04572
1.45299	0.04202
1.45299	0.04460
1.45735	0.03493
1.46171	0.03767
1.46608	0.03461
1.46608	0.03509
1.46608	0.03267
1.46608	0.03364
1.47044	0.02752
1.47480	0.02816
1.47480	0.02510
1.47480	0.02365
1.47480	0.02430
1.47480	0.02671
1.47480	0.02607
1.47480	0.02301
1.47480	0.02510
1.47480	0.02655
1.47480	0.02285
1.47480	0.02301
1.47480	0.02558
1.47480	0.02365
1.47480	0.02671
1.47480	0.03010
1.47480	0.02558
1.47480	0.02365
1.47480	0.02768
1.47480	0.02381
1.47480	0.02494
1.47480	0.02526
1.47480	0.02687
1.47480	0.02333
1.47480	0.02865
1.47480	0.02848
1.47480	0.02687
1.47480	0.02558
1.47480	0.02188
1.47480	0.02623
1.47480	0.02172
1.47480	0.02397
1.47480	0.01173
1.47480	0.02784
1.47480	0.02961
1.47480	0.02816
1.47480	0.02816
1.47480	0.02865
1.47480	0.02236
1.47480	0.02268
1.47480	0.02526
1.47480	0.02446
1.47480	0.02413
1.47480	0.02881
1.47480	0.02687
1.47480	0.02784
1.47480	0.02784
1.47480	0.02526
1.47480	0.02526
1.47480	0.02800
1.47480	0.02865
1.47480	0.02736
1.47480	0.02526
1.47480	0.02655
1.47480	0.02591
1.47480	0.02623
1.47480	0.02671
1.47480	0.02848
1.47480	0.02784
1.47480	0.02140
1.47480	0.02188
1.47480	0.02897
1.47480	0.02591
1.47480	0.02285
1.47480	0.02897
1.47480	0.02720
1.47480	0.02639
1.47480	0.02140
1.47480	0.02397
1.47480	0.02494
1.47480	0.02784
1.47917	0.02333
1.47917	0.02172
1.47917	0.02607
1.47917	0.02639
1.47917	0.02236
1.47917	0.02591
1.48789	0.02043
1.48789	0.02091
1.48789	0.02107
1.48789	0.01946
1.49226	0.01592
1.50098	0.00980
1.50535	0.00657
1.50535	0.01108
1.50535	0.00883
1.50535	0.00786
1.50535	0.01044
1.50535	0.00915
1.50971	0.00963
1.51844	0.00545
1.52280	-0.00406
1.52280	-0.00197
1.52280	0.00158
1.52280	0.00383
1.52280	0.00287
1.53153	-0.00197
1.53589	-0.00648
1.54025	-0.00841
1.54025	0.00142
1.54025	-0.00470
1.54025	-0.00487
1.54025	-0.00164
1.54898	-0.01034
1.55771	-0.00470
1.55771	-0.00632
1.55771	-0.01131
1.55771	-0.01115
1.56207	-0.01083
1.57080	-0.00857
1.57080	-0.01244
1.57080	-0.01502
1.57080	-0.01099
1.57080	-0.00793
1.57516	-0.00615
1.57952	-0.01437
1.57952	-0.00954
1.57952	-0.00857
1.57952	-0.01163
1.57952	-0.00922
1.58389	-0.01083
1.59261	-0.01147
1.59698	-0.01002
1.59698	-0.01340
1.59698	-0.00841
1.59698	-0.01147
1.59698	-0.00857
1.59698	-0.00970
1.59698	-0.01502
1.59698	-0.00938
1.59698	-0.00841
1.59698	-0.01357
1.59698	-0.00922
1.59698	-0.01308
1.59698	-0.00938
1.59698	-0.00970
1.59698	-0.01437
1.59698	-0.01163
1.59698	-0.01373
1.59698	-0.01195
1.59698	-0.01324
1.59698	-0.01050
1.59698	-0.01421
1.59698	-0.01179
1.59698	-0.01018
1.59698	-0.01195
1.59698	-0.00825
1.59698	-0.01695
1.59698	-0.01099
1.59698	-0.01147
1.59698	-0.01308
1.59698	-0.01212
1.59698	-0.00905
1.59698	-0.00825
1.59698	-0.00986
1.59698	-0.01083
1.59698	-0.01163
1.59698	-0.00809
1.59698	-0.01050
1.59698	-0.00841
1.59698	-0.00986
1.59698	-0.00664
1.59698	-0.00728
1.59698	-0.01389
1.59698	-0.01083
1.59698	-0.01437
1.59698	-0.00664
1.59698	-0.00841
1.59698	-0.00986
1.59698	-0.01163
1.59698	-0.01067
1.59698	-0.00970
1.59698	-0.01099
1.59698	-0.00905
1.59698	-0.00857
1.59698	-0.01292
1.59698	-0.01502
1.59698	-0.01034
1.59698	-0.01067
1.59698	-0.01034
1.59698	-0.00777
1.59698	-0.01518
1.59698	-0.01083
1.59698	-0.00970
1.59698	-0.00938
1.59698	-0.01002
1.59698	-0.01389
1.59698	-0.00970
1.59698	-0.01002
1.59698	-0.01389
1.59698	-0.01437
1.59698	-0.01083
1.59698	-0.01067
1.59698	-0.01195
1.59698	-0.00954
1.59698	-0.00970
1.59698	-0.01405
1.59698	-0.01050
1.59698	-0.00793
1.59698	-0.01034
1.59698	-0.00954
1.59698	-0.01308
1.59698	-0.01179
1.59698	-0.00793
1.59698	-0.00777
1.59698	-0.00938
1.59698	-0.00744
1.59698	-0.01147
1.59698	-0.00938
1.59698	-0.01630
1.59698	-0.01050
1.59698	-0.01179
1.59698	-0.00229
1.59698	-0.01437
1.59698	-0.01018
1.59698	-0.00777
1.59698	-0.00905
1.59698	-0.01034
1.59698	-0.01373
1.59698	-0.01050
1.59698	-0.00841
1.59698	-0.01212
1.59698	-0.00905
1.59698	-0.00970
1.59698	-0.01163
1.59698	-0.01195
1.59698	-0.01002
1.59698	-0.01244
1.59698	-0.01260
1.59698	-0.01179
1.59698	-0.01050
1.59698	-0.00922
1.59698	-0.00954
1.59698	-0.01179
1.59698	-0.00905
1.59698	-0.01131
1.59698	-0.00857
1.59698	-0.00680
1.59698	-0.01034
1.59698	-0.01292
1.59698	-0.00986
1.59698	-0.01357
1.59698	-0.01131
1.59698	-0.00793
1.59698	-0.00728
1.59698	-0.01244
1.59698	-0.00938
1.59698	-0.00760
1.59698	-0.00873
1.59698	-0.01357
1.59698	-0.00777
1.59698	-0.01212
1.59698	-0.01469
1.59698	-0.01276
1.59698	-0.01050
1.59698	-0.00889
1.59698	-0.01002
1.59698	-0.01292
1.59698	-0.00922
1.59698	-0.01002
1.59698	-0.01212
1.59698	-0.01437
1.59698	-0.01099
1.59698	-0.00905
1.59698	-0.00970
1.59698	-0.00889
1.59698	-0.00873
1.59698	-0.00777
1.59698	-0.00905
1.59698	-0.00905
1.59698	-0.00889
1.59698	-0.00986
1.59698	-0.00954
1.59698	-0.00970
1.59698	-0.01340
1.59698	-0.00809
1.59698	-0.00954
1.59698	-0.01373
1.59698	-0.01179
1.59698	-0.00954
1.59698	-0.01099
1.59698	-0.01050
1.59698	-0.01469
1.59698	-0.01018
1.59698	-0.01099
1.59698	-0.01002
1.59698	-0.01534
1.60134	-0.01260
1.61007	-0.00873
1.61879	-0.00873
1.62752	0.00093
1.62752	-0.00567
1.62752	-0.00519
1.62752	-0.00696
1.62752	-0.00406
1.62752	-0.00583
1.63625	-0.00599
1.64061	-0.00519
1.64061	-0.00583
1.64061	-0.00019
1.64061	-0.00148
1.64061	-0.00583
1.64061	-0.00100
1.64934	0.00351
1.65806	0.00206
1.65806	0.00110
1.65806	0.00545
1.65806	0.00448
1.65806	0.00432
1.65806	0.00593
1.66679	0.00947
1.67115	0.01108
1.67115	0.01092
1.67115	0.01092
1.67115	0.00593
1.67115	0.00770
1.67115	0.00931
1.67115	0.01253
1.67115	0.00690
1.68424	0.01721
1.68861	0.01946
1.68861	0.01463
1.68861	0.01576
1.68861	0.02301
1.68861	0.01817
1.68861	0.01801
1.69733	0.02542
1.70170	0.02575
1.70170	0.02800
1.70170	0.02510
1.70170	0.03058
1.70170	0.02913
1.71042	0.03928
1.71479	0.03735
1.71479	0.03525
1.71479	0.03541
1.71479	0.03686
1.71479	0.03477
1.72351	0.03396
1.72788	0.04605
1.72788	0.04717
1.72788	0.04347
1.72788	0.04605
1.72788	0.04443
1.73224	0.04492
1.73660	0.05265
1.73660	0.05523
1.73660	0.05185
1.73660	0.05539
1.73660	0.05217
1.74533	0.05700
1.74533	0.06232
1.74969	0.06135
1.75406	0.07053
1.75842	0.06844
1.76278	0.07746
1.76278	0.07585
1.76278	0.07730
1.76278	0.07843
1.76278	0.07778
1.76278	0.07472
1.77151	0.08117
1.77151	0.08648
1.77151	0.08552
1.77151	0.08520
1.77151	0.08568
1.77151	0.08487
1.78024	0.09116
1.78460	0.09583
1.78460	0.09470
1.78460	0.09937
1.78460	0.09792
1.78460	0.09373
1.78460	0.10759
1.78460	0.10163
1.78896	0.10098
1.79333	0.10920
1.79769	0.11291
1.79769	0.11097
1.79769	0.11113
1.79769	0.11146
1.79769	0.11226
1.80642	0.12096
1.81078	0.12354
1.81078	0.12531
1.81078	0.12531
1.81078	0.12096
1.81078	0.12853
1.81078	0.12660
1.81078	0.12741
1.81514	0.12757
1.81514	0.13305
1.81514	0.12870
1.81514	0.12902
1.81514	0.13160
1.82387	0.14046
1.82387	0.14658
1.82387	0.14432
1.82387	0.14771
1.82387	0.14706
1.82387	0.14223
1.82387	0.14593
1.82387	0.14078
1.82387	0.14545
1.82387	0.14545
1.82387	0.14561
1.82823	0.14738
1.82823	0.14738
1.82823	0.14835
1.83696	0.15657
1.83696	0.16140
1.83696	0.15915
1.83696	0.16092
1.83696	0.15721
1.83696	0.16124
1.83696	0.16301
1.84569	0.16656
1.84569	0.16897
1.85005	0.17510
1.85005	0.17107
1.85005	0.17155
1.85005	0.17316
1.85441	0.17816
1.85441	0.18396
1.85441	0.18509
1.85441	0.18428
1.85878	0.18235
1.86314	0.19201
1.86750	0.19282
1.86750	0.19830
1.86750	0.19491
1.87187	0.20249
1.87187	0.20555
1.87623	0.20506
1.87623	0.20619
1.87623	0.20925
1.87623	0.20571
1.87623	0.21473
1.88059	0.21634
1.88059	0.21666
1.88059	0.21554
1.88059	0.21264
1.88059	0.21473
1.88496	0.22730
1.88932	0.22875
1.88932	0.23116
1.88932	0.23294
1.88932	0.22923
1.88932	0.23068
1.89805	0.23954
1.89805	0.24002
1.89805	0.24147
1.89805	0.23777
1.89805	0.24405
1.89805	0.24115
1.89805	0.23890
1.89805	0.24341
1.89805	0.23664
1.89805	0.23696
1.89805	0.24373
1.89805	0.24373
1.89805	0.24164
1.90677	0.25324
1.91114	0.25581
1.91114	0.25726
1.91114	0.25678
1.91114	0.25920
1.91114	0.25678
1.91114	0.26210
1.91550	0.26355
1.91550	0.26097
1.91986	0.27015
1.91986	0.26838
1.91986	0.27305
1.91986	0.27241
1.92423	0.27579
1.92423	0.27676
1.92859	0.28030
1.93295	0.28884
1.93295	0.29239
1.93295	0.28626
1.93295	0.29045
1.93732	0.29754
1.94168	0.30125
1.94168	0.30817
1.94168	0.30431
1.94168	0.30705
1.94168	0.30254
1.94168	0.30850
1.95041	0.31687
1.95477	0.31881
1.95477	0.32445
1.95477	0.32155
1.95477	0.32332
1.95477	0.32058
1.95477	0.32332
1.95477	0.32251
1.95913	0.33105
1.95913	0.33250
1.95913	0.32767
1.95913	0.33089
1.95913	0.32944
1.95913	0.33137
1.96786	0.33991
1.97222	0.34410
1.97222	0.34781
1.97222	0.35345
1.97222	0.35425
1.97222	0.35119
1.97222	0.34201
1.97222	0.34958
1.98095	0.36037
1.98531	0.36295
1.98531	0.36972
1.98531	0.36779
1.98531	0.36585
1.98968	0.37117
1.98968	0.37165
1.98968	0.37536
1.98968	0.37149
1.98968	0.37359
1.99404	0.36891
1.99840	0.38889
1.99840	0.39083
1.99840	0.39034
2.00277	0.39179
2.00277	0.39598
2.00277	0.39872
2.00713	0.40098
2.00713	0.39228
2.00713	0.39630
2.00713	0.39421
2.00713	0.39469
2.00713	0.39582
2.00713	0.40098
2.00713	0.40017
2.00713	0.39550
2.00713	0.39759
2.00713	0.39534
2.00713	0.39663
2.00713	0.39727
2.00713	0.39791
2.00713	0.39840
2.00713	0.38905
2.00713	0.39534
2.00713	0.39405
2.00713	0.39501
2.00713	0.39663
2.00713	0.39711
2.00713	0.40065
2.00713	0.40323
2.00713	0.39469
2.00713	0.39598
2.00713	0.39630
2.00713	0.39969
2.00713	0.40436
2.00713	0.40565
2.00713	0.40194
2.00713	0.40355
2.00713	0.40404
2.00713	0.40065
2.01586	0.41467
2.02458	0.43094
2.03331	0.43900
2.03331	0.43433
2.03331	0.43368
2.03331	0.43545
2.03331	0.43239
2.03331	0.43610
2.03331	0.43416
2.03331	0.43996
2.03331	0.43352
2.03331	0.43916
2.03331	0.43900
2.03331	0.43304
2.03331	0.43674
2.03331	0.43465
2.03331	0.43449
2.03331	0.43481
2.03331	0.43594
2.03331	0.43223
2.03331	0.43465
2.02895	0.42965
2.02895	0.42869
2.02895	0.43094
2.02895	0.42691
2.02895	0.43014
2.02895	0.42450
2.02895	0.43014
2.02895	0.42691
2.02895	0.43143
2.02895	0.43288
2.02895	0.43497
2.03331	0.43706
2.04204	0.45318
2.05076	0.46816
2.05076	0.46703
2.05076	0.46558
2.05513	0.47525
2.05949	0.48346
2.06385	0.48475
2.06385	0.48653
2.06385	0.48121
2.06385	0.48572
2.06385	0.48201
2.06385	0.48765
2.06385	0.48620
2.06385	0.48411
2.06385	0.48524
2.06822	0.48588
2.07258	0.50006
2.07258	0.50135
2.07258	0.49829
2.07258	0.49958
2.07258	0.49474
2.07258	0.50280
2.07258	0.49378
2.07258	0.50167
2.07694	0.50103
2.07694	0.50844
2.07694	0.50264
2.07694	0.50264
2.08131	0.50747
2.08131	0.50505
2.08131	0.50328
2.08131	0.50779
2.08131	0.50747
2.08131	0.50570
2.08131	0.50328
2.08567	0.52342
2.09003	0.51891
2.09003	0.52326
2.09003	0.52036
2.09003	0.51778
2.09003	0.52439
2.09003	0.52261
2.09876	0.53115
2.09876	0.53438
2.09876	0.53486
2.09876	0.53309
2.10312	0.54001
2.10312	0.53776
2.10749	0.54388
2.11185	0.55065
2.11621	0.55323
2.11621	0.55548
2.11621	0.55484
2.11621	0.55306
2.11621	0.55564
2.12058	0.56193
2.12494	0.56031
2.12494	0.56805
2.12494	0.56064
2.12494	0.56386
2.12494	0.56305
2.12494	0.56611
2.12494	0.56708
2.12494	0.56756
2.12494	0.56773
2.12494	0.56547
2.12494	0.56901
2.12494	0.56402
2.12494	0.56563
2.12494	0.56644
2.12930	0.57175
2.12930	0.56998
2.13367	0.57804
2.13367	0.58029
2.13367	0.57208
2.13367	0.57707
2.13367	0.57836
2.13367	0.58126
2.13367	0.58013
2.13367	0.57916
2.13367	0.57498
2.13367	0.58094
2.13367	0.57498
2.13367	0.58078
2.13367	0.57900
2.14239	0.58722
2.14675	0.59463
2.14675	0.59721
2.14675	0.59334
2.14675	0.59334
2.15112	0.59898
2.15112	0.60172
2.15548	0.60607
2.15548	0.60414
2.15548	0.60414
2.15548	0.60607
2.15548	0.60365
2.15548	0.60285
2.15548	0.60365
2.15548	0.60543
2.15548	0.60398
2.15548	0.60526
2.15548	0.60575
2.15548	0.60398
2.15548	0.59963
2.15548	0.60011
2.15548	0.60510
2.15548	0.60430
2.15548	0.59673
2.15548	0.60623
2.15548	0.60172
2.15548	0.60333
2.15548	0.60381
2.15548	0.60510
2.15548	0.59898
2.15548	0.60075
2.15548	0.60301
2.15548	0.60091
2.15548	0.60317
2.15548	0.60220
2.15548	0.60349
2.15548	0.59898
2.15548	0.60414
2.15548	0.60543
2.15548	0.60462
2.15548	0.60494
2.15548	0.61106
2.15548	0.60381
2.15984	0.60478
2.16421	0.61010
2.16421	0.60913
2.16421	0.61348
2.16421	0.60897
2.16421	0.61268
2.16421	0.61010
2.16421	0.61074
2.17293	0.62508
2.18166	0.63378
2.18602	0.63636
2.18602	0.63829
2.18602	0.63749
2.18602	0.63733
2.18602	0.63330
2.18602	0.63282
2.18602	0.63636
2.18602	0.63604
2.18602	0.63684
2.19039	0.63668
2.19475	0.63974
2.19911	0.64442
2.19911	0.64393
2.19911	0.64828
2.19911	0.64442
2.20348	0.65295
2.20784	0.65150
2.20784	0.65585
2.20784	0.65553
2.21220	0.65521
2.21657	0.66455
2.21657	0.66262
2.21657	0.66552
2.22093	0.66858
2.22093	0.66987
2.22529	0.67100
2.22529	0.67277
2.23402	0.67245
2.23402	0.67857
2.23402	0.67793
2.23838	0.67728
2.23838	0.67696
2.24275	0.68179
2.24275	0.68582
2.24711	0.68824
2.25147	0.69372
2.25147	0.69662
2.25147	0.68759
2.25147	0.68727
2.25147	0.69307
2.25584	0.69597
2.25584	0.69549
2.25584	0.69227
2.26020	0.69629
2.26456	0.70161
2.26456	0.69742
2.26456	0.69597
2.26456	0.70000
2.26456	0.69629
2.26456	0.69243
2.26456	0.69468
2.26456	0.69613
2.26456	0.69742
2.26456	0.69517
2.26456	0.69130
2.26456	0.69291
2.26456	0.69790
2.26456	0.69678
2.26456	0.69098
2.26456	0.70080
2.26456	0.69903
2.26456	0.70000
2.26456	0.69952
2.26893	0.70258
2.27329	0.70242
2.27765	0.70515
2.27765	0.70000
2.27765	0.70515
2.27765	0.70467
2.28202	0.70709
2.28638	0.71095
2.29074	0.71369
2.29074	0.71273
2.29074	0.71289
2.29511	0.70999
2.30383	0.71917
2.30383	0.72143
2.30383	0.71675
2.30383	0.71192
2.31692	0.72255
2.32129	0.72594
2.32129	0.72868
2.32129	0.72191
2.32129	0.72352
2.32129	0.72771
2.32129	0.72497
2.33001	0.72739
2.33438	0.73029
2.33874	0.72755
2.33874	0.72352
2.34310	0.72932
2.34747	0.72336
2.35619	0.72852
2.35619	0.73270
2.35619	0.73142
2.35619	0.73093
2.36056	0.73077
2.36492	0.73464
2.36492	0.73512
2.36492	0.73335
2.36492	0.73077
2.36492	0.73013
2.36492	0.73061
2.36492	0.73174
2.36928	0.73125
2.36928	0.73383
2.37365	0.72980
2.37365	0.72932
2.37365	0.73335
2.37365	0.72997
2.37365	0.73303
2.37365	0.73367
2.37801	0.73142
2.37801	0.73238
2.37801	0.73415
2.37801	0.73190
2.37801	0.73528
2.37801	0.73560
2.38674	0.73190
2.38674	0.72352
2.38674	0.73045
2.38674	0.73222
2.38674	0.73222
2.39110	0.73480
2.39546	0.73947
2.39546	0.73673
2.39546	0.73754
2.39546	0.73673
2.39546	0.73335
2.39983	0.73593
2.40419	0.73754
2.40419	0.73303
2.40419	0.73496
2.40419	0.73351
2.40419	0.73689
2.40855	0.73319
2.41728	0.73399
2.41728	0.73351
2.41728	0.73190
2.41728	0.73367
2.41728	0.73432
2.42601	0.73415
2.42601	0.72626
2.43037	0.72900
2.43037	0.72223
2.43473	0.72578
2.43910	0.72852
2.44346	0.72400
2.44782	0.71998
2.44782	0.72529
2.44782	0.72336
2.44782	0.72481
2.44782	0.72143
2.45219	0.72191
2.46091	0.71756
2.46528	0.71869
2.46528	0.71240
2.46964	0.70757
2.47400	0.71192
2.47400	0.71095
2.47400	0.70870
2.47400	0.70677
2.47400	0.71160
2.48273	0.70113
2.48273	0.70612
2.48273	0.70451
2.48273	0.70161
2.48709	0.70435
2.49146	0.70032
2.49146	0.69968
2.49146	0.69613
2.49146	0.69935
2.49582	0.69500
2.49582	0.69710
2.50018	0.69017
2.50018	0.69275
2.50455	0.68759
2.50455	0.68405
2.50455	0.69210
2.50455	0.68518
2.50455	0.69114
2.51327	0.68340
2.51327	0.67857
2.51327	0.68115
2.51327	0.68340
2.51327	0.68195
2.51764	0.67825
2.52200	0.67245
2.52200	0.67535
2.52200	0.67841
2.52636	0.67068
2.52636	0.67148
2.53073	0.67052
2.53509	0.66520
2.53509	0.66520
2.53509	0.66230
2.53945	0.65553
2.54382	0.65505
2.54818	0.65585
2.54818	0.65183
2.54818	0.65360
2.55254	0.65312
2.55254	0.65086
2.55254	0.64828
2.55254	0.65005
2.55254	0.64796
2.55254	0.64764
2.55254	0.64329
2.55254	0.62959
2.55254	0.63201
2.55254	0.63249
2.55254	0.63249
2.55254	0.63330
2.55254	0.63040
2.55254	0.63394
2.55254	0.63410
2.55254	0.63185
2.55254	0.63346
2.55254	0.63700
2.55254	0.63088
2.55254	0.63249
2.55254	0.63459
2.55254	0.63298
2.55254	0.63829
2.55254	0.63620
2.55691	0.63845
2.55691	0.63668
2.55691	0.63958
2.55691	0.63862
2.55691	0.64216
2.56127	0.63282
2.56127	0.63443
2.56127	0.63427
2.56127	0.63459
2.56563	0.63217
2.57436	0.62025
2.58309	0.61622
2.58309	0.61590
2.58309	0.61123
2.58309	0.61654
2.58309	0.61638
2.59181	0.60381
2.60054	0.60494
2.60490	0.59157
2.60490	0.58964
2.60490	0.59012
2.60490	0.58513
2.61363	0.58142
2.61799	0.57514
2.62236	0.57079
2.62236	0.57063
2.62236	0.56579
2.62236	0.57353
2.62236	0.56950
2.62236	0.57336
2.63108	0.55951
2.63545	0.55210
2.63981	0.54743
2.63981	0.54308
2.63981	0.54936
2.63981	0.54646
2.64417	0.54098
2.64854	0.53679
2.65290	0.53131
2.65290	0.53260
2.65290	0.53276
2.65290	0.53196
2.65290	0.53083
2.65290	0.53260
2.66163	0.52358
2.66599	0.51585
2.66599	0.51440
2.66599	0.50973
2.67035	0.50296
2.67908	0.49184
2.67908	0.48862
2.67908	0.49490
2.67908	0.49571
2.69217	0.47589
2.69653	0.47251
2.69653	0.47283
2.69653	0.47493
2.69653	0.47444
2.70090	0.46816
2.70526	0.45849
2.70962	0.45269
2.70962	0.45398
2.70962	0.45366
2.71399	0.44625
2.71399	0.44383
2.71835	0.44141
2.71835	0.44174
2.71835	0.44093
2.71835	0.43578
2.71835	0.43690
2.71835	0.44093
2.71835	0.44238
2.71835	0.44303
2.71835	0.44303
2.71835	0.44093
2.70526	0.45656
2.69653	0.47041
2.68781	0.47670
2.68781	0.48137
2.68344	0.48459
2.67472	0.50215
2.66163	0.51843
2.64854	0.53389
2.64417	0.54485
2.64417	0.54356
2.63545	0.55854
2.63108	0.56080
2.63108	0.56692
2.62236	0.56740
2.61363	0.57369
2.60927	0.58368
2.60927	0.58851
2.60927	0.58319
2.60927	0.58770
2.60927	0.58819
2.60927	0.58851
2.62236	0.56740
2.63545	0.55709
2.64417	0.53953
2.65726	0.52664
2.67035	0.50602
2.68781	0.48508
2.70090	0.46574
2.70962	0.44738
2.71835	0.43336
2.72708	0.41676
2.73580	0.40388
2.74453	0.39808
2.74889	0.38889
2.75326	0.38245
2.75762	0.37487
2.75762	0.37439
2.75762	0.37085
2.75762	0.37439
2.75762	0.37745
2.75762	0.37085
2.75762	0.37342
2.75762	0.37665
2.75762	0.37036
2.75762	0.37181
2.75762	0.37036
2.75762	0.37697
2.75762	0.37777
2.75762	0.37536
2.75762	0.37504
2.74453	0.39147
2.73580	0.40484
2.73144	0.40871
2.73144	0.40839
2.73144	0.40275
2.73144	0.40243
2.73580	0.40259
2.74453	0.38937
2.75326	0.37649
2.75762	0.37278
2.75762	0.37326
2.76198	0.36440
2.77071	0.35167
2.78380	0.33540
2.79253	0.31784
2.79689	0.31414
2.80125	0.30721
2.80125	0.31075
2.80125	0.31140
2.80125	0.30576
2.80562	0.29367
2.80562	0.29512
2.80562	0.30173
2.80562	0.29867
2.80562	0.29851
2.80562	0.29593
2.80562	0.29770
2.80562	0.30141
2.80562	0.29931
2.80562	0.29738
2.80125	0.30560
2.78816	0.32751
2.78380	0.32912
2.78380	0.33540
2.78380	0.33234
2.78380	0.33524
2.78380	0.33073
2.78380	0.33025
2.78380	0.32831
2.80125	0.31188
2.80562	0.29222
2.80998	0.29367
2.80998	0.29158
2.80998	0.29512
2.81871	0.28320
2.82743	0.26870
2.83180	0.26451
2.83180	0.26612
2.83180	0.26065
2.83616	0.25887
2.83616	0.25259
2.83616	0.25775
2.83616	0.25775
2.83616	0.25871
2.83616	0.25614
2.83616	0.25291
2.83616	0.25130
2.83616	0.25501
2.83616	0.25243
2.84489	0.24341
2.84489	0.23938
2.84925	0.23632
2.84925	0.23358
2.84925	0.23761
2.84925	0.23777
2.84925	0.23487
2.84925	0.23600
2.84925	0.23584
2.85798	0.22730
2.86234	0.22617
2.86234	0.21554
2.86234	0.22552
2.86234	0.22424
2.86234	0.22456
2.86234	0.22198
2.86670	0.21215
2.87107	0.20909
2.87107	0.20974
2.87107	0.21054
2.87107	0.20829
2.87107	0.20684
2.87979	0.19717
2.87979	0.20071
2.87979	0.20184
2.87979	0.19942
2.87979	0.20152
2.87979	0.19701
2.87979	0.20200
2.88852	0.18557
2.89288	0.18525
2.89288	0.18315
2.89288	0.17735
2.89288	0.18138
2.89725	0.17526
2.89725	0.17784
2.89725	0.17590
2.90161	0.17220
2.90597	0.16914
2.90597	0.16543
2.90597	0.16849
2.90597	0.16946
2.91034	0.16140
2.91470	0.15109
2.91470	0.14980
2.91470	0.14884
2.92343	0.14706
2.92779	0.13804
2.92779	0.14078
2.92779	0.13981
2.93215	0.13321
2.93652	0.13208
2.93652	0.12998
2.93652	0.12805
2.93652	0.12886
2.94524	0.12257
2.94524	0.11967
2.94961	0.11758
2.94961	0.11307
2.94961	0.11178
2.94961	0.11758
2.94961	0.11242
2.94961	0.11871
2.94961	0.11661
2.95397	0.10533
2.95833	0.10163
2.95833	0.09889
2.95833	0.10501
2.95833	0.10469
2.95833	0.10243
2.95833	0.10517
2.95833	0.10405
2.96706	0.09551
2.96706	0.09696
2.96706	0.09808
2.96706	0.10050
2.96706	0.10098
2.96706	0.09873
2.96706	0.09728
2.97142	0.09390
2.97579	0.08858
2.97579	0.08665
2.98015	0.08391
2.98451	0.08375
2.98451	0.08358
2.98451	0.08471
2.98451	0.08375
2.98888	0.07907
2.99324	0.07231
2.99324	0.07279
2.99324	0.06908
2.99760	0.06812
3.00633	0.06635
3.00633	0.06441
3.01069	0.06038
3.01506	0.05684
3.01506	0.05426
3.01506	0.05587
3.01506	0.05571
3.01942	0.05201
3.02378	0.04782
3.02378	0.04492
3.02378	0.04782
3.02378	0.04782
3.02378	0.04508
3.02815	0.05410
3.02815	0.04121
3.03687	0.03863
3.03687	0.03880
3.03687	0.03831
3.03687	0.03751
3.04560	0.03171
3.05433	0.02381
3.06305	0.01415
3.06305	0.02059
3.06305	0.01656
3.06305	0.02075
3.06742	0.01366
3.07178	0.01640
3.07614	0.01157
3.07614	0.01044
3.07614	0.00770
3.07614	0.00351
3.08051	0.00947
3.08051	0.00657
3.08051	0.00818
3.08051	0.01125
3.08923	0.00883
3.09360	0.00577
3.09360	0.00287
3.09360	0.00641
3.09796	0.00528
3.09796	0.00303
3.10232	0.00158
3.10232	0.00190
3.10232	0.00093
3.11105	-0.00068
3.11541	-0.00309
3.11541	-0.00180
3.11541	-0.00374
3.11541	-0.00277
3.11541	-0.00519
3.12414	-0.00938
3.12850	-0.00905
3.12850	-0.01582
3.13287	-0.01179
3.13723	-0.00567
3.14159	-0.01421
3.15032	-0.01421